,EEG.AF3,EEG.F7,EEG.F3,EEG.FC5,EEG.T7,EEG.P7,EEG.O1,EEG.O2,EEG.P8,EEG.T8,EEG.FC6,EEG.F4,EEG.F8,EEG.AF4
0,106.0258789999998,94.61523400000078,118.3334960000002,-137.9487299999996,142.05126999999993,116.0258789999998,119.48730499999965,120.12841800000024,130.38476599999922,158.46142599999985,129.7436520000001,113.3334960000002,92.05126999999993,110.89746099999957
1,107.30761700000039,94.61523400000078,117.69238299999961,-133.33325200000036,147.94873000000007,114.61523400000078,121.2822270000006,120.64111300000059,131.53857400000015,163.20507799999996,132.56396500000028,117.94873000000007,93.20507799999996,110.76904300000024
2,108.84619099999964,95.64111300000059,117.30761700000039,-129.35888699999987,150.51269500000035,113.3334960000002,123.9741210000002,120.76904300000024,130.38476599999922,166.15380900000036,137.56396500000028,119.61523400000078,96.79492200000004,110.25634799999989
3,109.48730499999965,96.9228520000006,118.3334960000002,-126.15380900000036,148.84619099999964,112.30761700000039,126.53857400000015,121.2822270000006,128.84619099999964,164.7436520000001,142.82031300000017,117.43603499999972,100.51269500000035,109.48730499999965
4,107.82031300000017,96.53857400000015,119.87158199999976,-124.61547900000005,143.20507799999996,111.2822270000006,127.17968800000017,121.15380900000036,127.17968800000017,157.3076170000004,144.87158199999976,112.56396500000028,101.15380900000036,108.3334960000002
5,104.23095699999976,93.7177729999994,120.12841800000024,-125.0,135.51269500000035,109.74365200000011,124.48730499999965,119.23095699999976,124.23095699999976,145.2563479999999,141.9228520000006,107.69238299999961,97.17968800000017,106.79492200000004
6,101.2822270000006,89.35888699999941,118.46142599999985,-126.41015600000037,129.7436520000001,107.17968800000017,119.61523400000078,115.51269500000035,119.35888699999941,133.58984400000008,136.2822270000006,105.64111300000059,91.0258789999998,105.76904300000024
7,101.41015599999992,85.76904300000024,116.15380900000036,-126.41015600000037,128.9741210000002,103.58984400000008,115.38476599999922,112.69238299999961,114.23095699999976,128.20507799999996,133.0771479999994,108.0771479999994,86.6665039999998,106.41015599999992
8,105.38476599999922,84.74365200000011,115.64111300000059,-123.20507799999996,133.84619099999964,99.10253900000043,114.61523400000078,112.94873000000007,111.9228520000006,131.2822270000006,135.89746099999957,113.20507799999996,87.82031300000017,109.23095699999976
9,111.2822270000006,86.15380900000036,118.3334960000002,-117.05127000000039,141.9228520000006,94.10253900000043,118.3334960000002,117.30761700000039,114.48730499999965,140.6411130000006,144.10253900000043,117.56396500000028,94.23095699999976,113.46142599999985
10,116.15380900000036,88.84619099999964,123.3334960000002,-110.51293900000019,148.3334960000002,89.35888699999941,124.35888699999941,123.9741210000002,121.41015599999992,150.12841800000024,153.84619099999964,119.10253900000043,102.30761700000039,117.17968800000017
11,117.82031300000017,91.41015599999992,128.3334960000002,-105.76928699999962,150.0,85.76904300000024,129.87158199999976,129.7436520000001,129.61523400000078,154.48730499999965,161.0258789999998,118.20507799999996,107.17968800000017,118.3334960000002
12,116.9228520000006,93.3334960000002,131.53857400000015,-103.20507799999996,148.7177729999994,83.9741210000002,133.20507799999996,132.82031300000017,135.6411130000006,152.43603499999972,163.9741210000002,116.53857400000015,107.17968800000017,116.9228520000006
13,115.76904300000024,95.38476599999922,132.3076170000004,-101.02563499999997,149.10253900000043,83.7177729999994,133.9741210000002,133.3334960000002,138.3334960000002,147.56396500000028,164.48730499999965,115.51269500000035,104.10253900000043,114.10253900000043
14,116.2822270000006,98.3334960000002,131.2822270000006,-97.43579099999943,154.10253900000043,84.23095699999976,133.58984400000008,133.20507799999996,138.3334960000002,144.7436520000001,165.6411130000006,115.76904300000024,101.6665039999998,112.56396500000028
15,118.20507799999996,101.6665039999998,129.7436520000001,-91.79492200000004,161.41015599999992,84.48730499999965,133.58984400000008,133.7177729999994,137.17968800000017,145.76904300000024,169.23095699999976,117.30761700000039,101.41015599999992,113.3334960000002
16,120.12841800000024,103.58984400000008,129.23095699999976,-85.51293900000019,165.89746099999957,83.9741210000002,134.10253900000043,134.3588869999994,135.76904300000024,148.3334960000002,174.61523400000078,119.23095699999976,102.43603499999972,115.12841800000024
17,120.76904300000024,102.30761700000039,130.0,-80.25634799999989,164.23095699999976,83.0771479999994,134.3588869999994,134.23095699999976,134.7436520000001,149.48730499999965,178.9741210000002,120.38476599999922,103.20507799999996,116.0258789999998
18,119.48730499999965,97.43603499999972,130.12841800000024,-77.43579099999943,157.94873000000007,82.17968800000017,133.7177729999994,132.56396500000028,134.10253900000043,147.3076170000004,180.12841800000024,119.61523400000078,102.69238299999961,115.0
19,116.15380900000036,89.48730499999965,127.43603499999972,-76.92309599999999,151.79492200000004,81.79492200000004,131.79492200000004,130.12841800000024,134.48730499999965,143.3334960000002,177.94873000000007,116.53857400000015,100.38476599999922,113.46142599999985
20,110.76904300000024,81.0258789999998,121.6665039999998,-76.53857400000015,150.0,81.9228520000006,129.61523400000078,128.58984400000008,136.53857400000015,140.51269500000035,175.12841800000024,111.6665039999998,96.9228520000006,112.43603499999972
21,106.0258789999998,75.51269500000035,116.79492200000004,-72.56420900000057,154.48730499999965,82.43603499999972,128.7177729999994,129.61523400000078,140.0,141.41015599999992,175.6411130000006,106.79492200000004,93.7177729999994,112.43603499999972
22,105.0,76.0258789999998,117.17968800000017,-62.564209000000574,163.0771479999994,83.20507799999996,130.76904300000024,134.3588869999994,144.87158199999976,145.76904300000024,181.9228520000006,104.10253900000043,93.0771479999994,113.20507799999996
23,109.74365200000011,81.9228520000006,124.23095699999976,-48.20507799999996,171.9228520000006,83.84619099999964,135.89746099999957,141.9228520000006,150.6411130000006,151.6665039999998,193.20507799999996,105.25634799999989,96.6665039999998,114.61523400000078
24,118.84619099999964,88.7177729999994,134.3588869999994,-33.71801800000003,177.56396500000028,84.35888699999941,142.17968800000017,149.61523400000078,156.41015599999992,156.15380900000036,205.89746099999957,110.12841800000024,103.9741210000002,116.6665039999998
25,128.0771479999994,91.15380900000036,141.79492200000004,-23.71801800000003,179.61523400000078,84.61523400000078,147.05126999999993,154.23095699999976,161.2822270000006,157.3076170000004,215.38476599999922,116.41015599999992,112.56396500000028,118.7177729999994
26,132.3076170000004,87.17968800000017,143.0771479999994,-19.487060999999812,180.6411130000006,85.25634799999989,148.84619099999964,154.48730499999965,164.23095699999976,154.87158199999976,219.7436520000001,121.15380900000036,118.84619099999964,119.35888699999941
27,129.3588869999994,79.48730499999965,138.84619099999964,-18.71801800000003,183.7177729999994,86.79492200000004,148.3334960000002,152.05126999999993,165.6411130000006,151.15380900000036,219.87158199999976,122.05126999999993,119.61523400000078,117.30761700000039
28,121.6665039999998,73.0771479999994,133.46142599999985,-17.30761700000039,189.87158199999976,90.0,146.79492200000004,149.48730499999965,165.89746099999957,147.56396500000028,218.3334960000002,119.87158199999976,115.12841800000024,113.0771479999994
29,115.12841800000024,72.43603499999972,132.17968800000017,-12.179442999999992,197.82031300000017,95.0,145.51269500000035,149.23095699999976,164.87158199999976,143.7177729999994,218.58984400000008,117.05126999999993,109.87158199999976,109.74365200000011
30,115.51269500000035,78.20507799999996,137.56396500000028,-2.9487300000000687,205.2563479999999,100.0,145.38476599999922,151.79492200000004,162.6923829999996,137.82031300000017,223.46142599999985,116.9228520000006,110.0,110.38476599999922
31,124.35888699999941,87.05126999999993,147.17968800000017,7.948730000000069,212.17968800000017,103.0771479999994,146.6665039999998,155.89746099999957,160.51269500000035,129.48730499999965,234.10253900000043,120.38476599999922,118.9741210000002,115.64111300000059
32,138.84619099999964,94.74365200000011,156.41015599999992,17.82031300000017,220.2563479999999,102.69238299999961,149.48730499999965,159.3588869999994,160.2563479999999,120.89746099999957,248.84619099999964,125.76904300000024,134.61523400000078,123.3334960000002
33,153.3334960000002,98.84619099999964,161.41015599999992,25.641113000000587,232.17968800000017,100.12841800000024,153.58984400000008,161.2822270000006,163.20507799999996,115.51269500000035,264.3588869999994,130.51269500000035,149.61523400000078,130.0
34,162.6923829999996,99.61523400000078,162.43603499999972,32.43603499999972,249.3588869999994,98.46142599999985,158.46142599999985,162.94873000000007,168.9741210000002,114.61523400000078,279.10253900000043,133.46142599999985,157.94873000000007,133.46142599999985
35,165.51269500000035,98.7177729999994,162.17968800000017,39.48730499999965,270.6411130000006,100.38476599999922,162.82031300000017,165.51269500000035,175.6411130000006,116.2822270000006,292.6923829999996,135.0,158.20507799999996,133.20507799999996
36,162.43603499999972,96.9228520000006,162.94873000000007,45.76904300000024,291.2822270000006,105.89746099999957,164.48730499999965,168.46142599999985,179.87158199999976,115.64111300000059,304.7436520000001,135.6411130000006,154.10253900000043,129.87158199999976
37,156.0258789999998,93.0771479999994,163.7177729999994,47.69238299999961,305.6411130000006,112.30761700000039,162.17968800000017,169.3588869999994,178.7177729999994,108.0771479999994,312.94873000000007,133.84619099999964,149.61523400000078,124.61523400000078
38,148.7177729999994,85.51269500000035,161.2822270000006,42.82031300000017,310.76904300000024,117.30761700000039,156.0258789999998,165.89746099999957,171.2822270000006,92.94873000000007,315.0,128.7177729999994,145.89746099999957,118.9741210000002
39,142.6923829999996,75.0,154.23095699999976,32.17968800000017,310.0,119.74365200000011,148.46142599999985,158.3334960000002,159.87158199999976,75.25634799999989,311.53857400000015,121.0258789999998,142.3076170000004,114.35888699999941
40,140.51269500000035,64.74365200000011,145.38476599999922,21.666503999999804,310.76904300000024,120.76904300000024,142.82031300000017,149.3588869999994,149.48730499999965,62.56396500000028,307.6923829999996,114.35888699999941,139.7436520000001,112.17968800000017
41,143.7177729999994,59.102539000000434,140.0,17.17968800000017,318.3334960000002,121.6665039999998,141.0258789999998,143.0771479999994,144.23095699999976,60.51269500000035,309.7436520000001,112.69238299999961,141.2822270000006,113.46142599999985
42,152.17968800000017,60.25634799999989,141.6665039999998,20.769043000000238,331.9228520000006,123.7177729999994,142.56396500000028,142.05126999999993,145.51269500000035,68.7177729999994,321.0258789999998,116.9228520000006,149.3588869999994,118.3334960000002
43,164.48730499999965,66.9228520000006,150.2563479999999,29.74365200000011,345.6411130000006,127.05126999999993,145.38476599999922,145.76904300000024,151.15380900000036,82.17968800000017,340.12841800000024,124.74365200000011,164.48730499999965,125.89746099999957
44,179.10253900000043,76.79492200000004,162.05126999999993,40.64111300000059,353.20507799999996,130.38476599999922,147.43603499999972,151.2822270000006,157.56396500000028,94.35888699999941,361.6665039999998,132.43603499999972,184.10253900000043,134.61523400000078
45,194.10253900000043,86.6665039999998,172.05126999999993,50.51269500000035,352.94873000000007,132.3076170000004,147.43603499999972,154.23095699999976,161.53857400000015,101.0258789999998,378.84619099999964,137.05126999999993,202.3076170000004,142.6923829999996
46,206.9228520000006,93.84619099999964,176.15380900000036,58.46142599999985,347.6923829999996,131.79492200000004,145.12841800000024,152.82031300000017,161.41015599999992,101.79492200000004,386.0258789999998,137.05126999999993,212.3076170000004,147.94873000000007
47,214.23095699999976,95.89746099999957,173.58984400000008,64.61523400000078,341.53857400000015,128.58984400000008,140.89746099999957,147.56396500000028,157.17968800000017,99.10253900000043,382.6923829999996,133.58984400000008,211.0258789999998,149.10253900000043
48,215.51269500000035,93.7177729999994,168.0771479999994,70.12841800000024,338.0771479999994,124.10253900000043,135.6411130000006,142.05126999999993,150.89746099999957,96.53857400000015,374.48730499999965,129.23095699999976,203.20507799999996,147.05126999999993
49,214.7436520000001,92.43603499999972,165.76904300000024,76.41015599999992,339.23095699999976,120.25634799999989,131.15380900000036,139.48730499999965,146.15380900000036,97.43603499999972,371.15380900000036,127.30761700000039,198.9741210000002,145.0
50,217.56396500000028,97.43603499999972,171.0258789999998,84.35888699999941,344.7436520000001,118.20507799999996,129.7436520000001,141.2822270000006,146.2822270000006,103.84619099999964,378.84619099999964,130.0,206.6665039999998,146.2822270000006
51,226.6665039999998,109.48730499999965,182.43603499999972,91.79492200000004,351.6665039999998,117.69238299999961,131.6665039999998,145.51269500000035,151.6665039999998,114.74365200000011,396.0258789999998,136.0258789999998,225.89746099999957,151.53857400000015
52,239.23095699999976,123.3334960000002,193.84619099999964,95.38476599999922,355.89746099999957,117.30761700000039,134.7436520000001,148.46142599999985,158.0771479999994,125.76904300000024,414.6152340000008,142.17968800000017,248.3334960000002,158.3334960000002
53,250.0,132.56396500000028,199.23095699999976,93.46142599999985,354.3588869999994,116.6665039999998,136.2822270000006,147.05126999999993,160.12841800000024,131.9228520000006,426.79492200000004,145.38476599999922,264.87158199999976,163.84619099999964
54,255.12841800000024,135.12841800000024,197.05126999999993,88.7177729999994,348.84619099999964,117.17968800000017,135.38476599999922,141.9228520000006,156.41015599999992,131.9228520000006,430.3847659999992,145.51269500000035,271.79492200000004,166.2822270000006
55,254.61523400000078,133.46142599999985,190.38476599999922,85.51269500000035,344.10253900000043,120.25634799999989,133.46142599999985,136.41015599999992,150.12841800000024,128.9741210000002,428.5898440000001,144.7436520000001,272.05126999999993,166.15380900000036
56,250.89746099999957,131.79492200000004,183.9741210000002,86.15380900000036,343.5898440000001,125.64111300000059,132.56396500000028,133.84619099999964,146.15380900000036,127.94873000000007,424.87158199999976,143.7177729999994,270.12841800000024,164.87158199999976
57,245.89746099999957,131.0258789999998,179.23095699999976,89.61523400000078,346.2822270000006,130.2563479999999,132.3076170000004,134.61523400000078,145.76904300000024,130.0,420.51269500000035,141.79492200000004,268.20507799999996,162.94873000000007
58,241.0258789999998,129.48730499999965,175.89746099999957,92.69238299999961,347.4360349999997,131.2822270000006,131.6665039999998,136.0258789999998,145.89746099999957,132.82031300000017,414.7436520000001,138.58984400000008,266.0258789999998,160.38476599999922
59,237.56396500000028,125.38476599999922,173.58984400000008,93.7177729999994,343.0771479999994,127.94873000000007,130.6411130000006,135.51269500000035,143.20507799999996,132.82031300000017,408.20507799999996,135.12841800000024,263.5898440000001,157.3076170000004
60,237.6923829999996,120.51269500000035,172.94873000000007,93.20507799999996,334.48730499999965,122.56396500000028,130.38476599999922,132.94873000000007,137.94873000000007,130.6411130000006,404.23095699999976,133.58984400000008,262.17968800000017,155.2563479999999
61,242.94873000000007,118.58984400000008,175.12841800000024,93.7177729999994,327.82031300000017,119.61523400000078,132.56396500000028,131.41015599999992,133.84619099999964,130.2563479999999,405.6411130000006,135.2563479999999,263.0771479999994,155.38476599999922
62,251.41015599999992,122.56396500000028,180.2563479999999,96.53857400000015,330.0,121.79492200000004,136.9228520000006,134.61523400000078,134.7436520000001,136.53857400000015,411.9228520000006,139.10253900000043,266.15380900000036,158.20507799999996
63,259.10253900000043,131.0258789999998,186.2822270000006,101.15380900000036,343.20507799999996,127.94873000000007,141.0258789999998,143.0771479999994,141.15380900000036,149.87158199999976,419.23095699999976,142.56396500000028,270.12841800000024,162.43603499999972
64,261.4101559999999,138.20507799999996,189.7436520000001,104.35888699999941,361.79492200000004,132.94873000000007,142.3076170000004,153.0771479999994,150.12841800000024,165.12841800000024,422.6923829999996,143.3334960000002,272.3076170000004,165.2563479999999
65,256.53857400000015,137.94873000000007,187.82031300000017,102.30761700000039,375.0,132.17968800000017,139.7436520000001,158.3334960000002,156.6665039999998,173.58984400000008,418.84619099999964,140.0,271.0258789999998,164.10253900000043
66,245.38476599999922,127.82031300000017,180.89746099999957,94.48730499999965,374.6152340000008,125.38476599999922,135.0,154.87158199999976,156.9228520000006,170.6411130000006,408.0771479999994,133.9741210000002,264.87158199999976,157.6923829999996
67,232.17968800000017,111.53857400000015,172.43603499999972,84.87158199999976,361.6665039999998,117.05126999999993,131.15380900000036,144.61523400000078,151.2822270000006,158.9741210000002,394.7436520000001,128.58984400000008,254.7436520000001,148.58984400000008
68,222.17968800000017,97.82031300000017,166.41015599999992,79.87158199999976,346.15380900000036,112.69238299999961,130.2563479999999,134.48730499999965,143.84619099999964,147.82031300000017,384.48730499999965,127.05126999999993,243.46142599999985,140.76904300000024
69,217.43603499999972,93.46142599999985,164.48730499999965,82.56396500000028,338.84619099999964,115.12841800000024,131.6665039999998,131.53857400000015,140.0,145.76904300000024,380.0,129.3588869999994,232.82031300000017,136.53857400000015
70,215.76904300000024,98.7177729999994,165.0,90.51269500000035,343.20507799999996,122.56396500000028,133.0771479999994,136.79492200000004,141.9228520000006,154.10253900000043,379.10253900000043,132.6923829999996,223.84619099999964,135.38476599999922
71,213.20507799999996,106.9228520000006,165.38476599999922,97.56396500000028,353.9741210000002,130.6411130000006,132.43603499999972,145.6411130000006,147.17968800000017,165.12841800000024,377.82031300000017,133.20507799999996,216.15380900000036,135.12841800000024
72,207.94873000000007,110.89746099999957,164.48730499999965,98.9741210000002,362.3076170000004,135.76904300000024,130.89746099999957,150.89746099999957,151.41015599999992,169.61523400000078,373.9741210000002,129.7436520000001,210.51269500000035,134.3588869999994
73,201.9228520000006,107.94873000000007,163.20507799999996,94.74365200000011,362.94873000000007,136.0258789999998,130.38476599999922,149.23095699999976,151.79492200000004,164.10253900000043,368.20507799999996,124.61523400000078,207.43603499999972,133.3334960000002
74,198.0771479999994,100.89746099999957,162.56396500000028,87.82031300000017,356.4101559999999,132.43603499999972,131.79492200000004,142.05126999999993,148.3334960000002,153.20507799999996,363.20507799999996,120.89746099999957,206.15380900000036,132.82031300000017
75,196.53857400000015,93.58984400000008,162.05126999999993,81.79492200000004,346.79492200000004,126.79492200000004,132.6923829999996,133.9741210000002,142.3076170000004,144.3588869999994,359.7436520000001,119.87158199999976,203.84619099999964,132.43603499999972
76,194.10253900000043,87.56396500000028,160.0,77.82031300000017,338.5898440000001,121.41015599999992,130.51269500000035,128.7177729999994,135.51269500000035,141.9228520000006,356.79492200000004,120.12841800000024,197.56396500000028,130.38476599999922
77,188.0771479999994,82.82031300000017,155.51269500000035,75.0,333.3334960000002,117.56396500000028,125.0,127.94873000000007,129.7436520000001,144.23095699999976,351.79492200000004,119.87158199999976,187.17968800000017,125.89746099999957
78,178.46142599999985,78.58984400000008,149.3588869999994,72.30761700000039,330.0,115.76904300000024,119.35888699999941,130.0,126.6665039999998,146.2822270000006,343.7177729999994,118.0771479999994,175.12841800000024,119.74365200000011
79,168.58984400000008,75.12841800000024,143.46142599999985,69.23095699999976,325.89746099999957,115.76904300000024,117.43603499999972,131.6665039999998,126.41015599999992,144.10253900000043,333.9741210000002,115.64111300000059,165.12841800000024,114.48730499999965
80,161.79492200000004,72.30761700000039,140.51269500000035,67.56396500000028,318.3334960000002,116.53857400000015,120.0,130.51269500000035,127.43603499999972,137.94873000000007,325.12841800000024,113.7177729999994,158.58984400000008,112.43603499999972
81,159.48730499999965,69.48730499999965,141.41015599999992,69.23095699999976,307.6923829999996,117.94873000000007,124.87158199999976,126.9228520000006,127.69238299999961,131.15380900000036,319.3588869999994,113.3334960000002,154.7436520000001,114.10253900000043
82,160.6411130000006,66.9228520000006,145.51269500000035,75.38476599999922,298.9741210000002,120.12841800000024,129.23095699999976,124.10253900000043,126.53857400000015,127.82031300000017,317.82031300000017,114.61523400000078,153.0771479999994,117.69238299999961
83,162.82031300000017,66.0258789999998,150.38476599999922,84.10253900000043,298.3334960000002,122.69238299999961,131.41015599999992,125.0,125.51269500000035,130.51269500000035,320.2563479999999,117.43603499999972,153.7177729999994,120.51269500000035
84,164.10253900000043,67.43603499999972,153.3334960000002,91.79492200000004,308.3334960000002,124.87158199999976,131.41015599999992,128.9741210000002,126.53857400000015,137.94873000000007,325.12841800000024,120.51269500000035,156.79492200000004,121.2822270000006
85,163.7177729999994,71.6665039999998,153.7177729999994,95.12841800000024,324.6152340000008,125.12841800000024,130.89746099999957,133.3334960000002,130.6411130000006,146.2822270000006,329.7436520000001,122.94873000000007,161.41015599999992,120.51269500000035
86,163.46142599999985,77.82031300000017,153.3334960000002,93.7177729999994,339.10253900000043,123.0771479999994,131.53857400000015,135.89746099999957,136.9228520000006,152.17968800000017,332.05126999999993,124.35888699999941,165.89746099999957,120.76904300000024
87,165.6411130000006,83.7177729999994,154.48730499999965,89.87158199999976,345.6411130000006,119.61523400000078,133.3334960000002,136.9228520000006,143.0771479999994,153.84619099999964,332.3076170000004,125.64111300000059,168.84619099999964,123.0771479999994
88,168.84619099999964,85.51269500000035,156.9228520000006,85.89746099999957,342.4360349999997,116.9228520000006,134.61523400000078,136.41015599999992,145.6411130000006,151.53857400000015,330.2563479999999,127.05126999999993,168.20507799999996,125.51269500000035
89,167.94873000000007,79.48730499999965,157.56396500000028,83.7177729999994,330.12841800000024,116.0258789999998,132.6923829999996,133.46142599999985,141.2822270000006,145.6411130000006,324.87158199999976,127.17968800000017,161.53857400000015,124.61523400000078
90,159.3588869999994,67.17968800000017,153.58984400000008,84.35888699999941,312.82031300000017,116.79492200000004,127.30761700000039,127.56396500000028,130.76904300000024,137.43603499999972,316.0258789999998,124.61523400000078,149.10253900000043,118.3334960000002
91,145.2563479999999,55.0,145.89746099999957,87.43603499999972,296.2822270000006,117.82031300000017,121.2822270000006,120.64111300000059,118.7177729999994,129.48730499999965,306.15380900000036,119.61523400000078,135.6411130000006,110.0
92,132.94873000000007,49.74365200000011,138.46142599999985,89.87158199999976,284.6152340000008,118.0771479999994,118.0771479999994,116.2822270000006,111.53857400000015,124.74365200000011,299.3588869999994,113.9741210000002,127.43603499999972,105.0
93,128.58984400000008,52.30761700000039,134.87158199999976,87.69238299999961,278.20507799999996,116.9228520000006,118.46142599999985,116.0258789999998,111.79492200000004,123.3334960000002,297.82031300000017,110.0,127.43603499999972,105.89746099999957
94,132.82031300000017,58.46142599999985,136.15380900000036,80.12841800000024,276.15380900000036,115.64111300000059,121.2822270000006,118.46142599999985,117.30761700000039,124.10253900000043,300.12841800000024,109.10253900000043,133.20507799999996,110.89746099999957
95,141.6665039999998,63.20507799999996,141.2822270000006,71.9228520000006,278.5898440000001,115.25634799999989,124.87158199999976,122.05126999999993,124.35888699999941,125.76904300000024,304.10253900000043,111.9228520000006,139.61523400000078,116.15380900000036
96,150.2563479999999,65.0,147.94873000000007,69.87158199999976,286.0258789999998,116.15380900000036,129.3588869999994,126.79492200000004,130.2563479999999,129.61523400000078,307.94873000000007,117.69238299999961,143.84619099999964,119.23095699999976
97,155.76904300000024,65.25634799999989,154.3588869999994,77.69238299999961,295.89746099999957,117.17968800000017,134.48730499999965,133.84619099999964,135.12841800000024,136.0258789999998,310.6411130000006,124.48730499999965,145.51269500000035,120.12841800000024
98,156.53857400000015,65.0,158.3334960000002,92.17968800000017,301.6665039999998,117.30761700000039,139.61523400000078,141.9228520000006,139.3588869999994,143.0771479999994,311.15380900000036,129.3588869999994,145.38476599999922,120.12841800000024
99,151.9228520000006,62.69238299999961,158.0771479999994,104.87158199999976,298.0771479999994,116.15380900000036,143.0771479999994,147.43603499999972,142.05126999999993,146.0258789999998,308.20507799999996,130.0,143.46142599999985,119.48730499999965
100,141.9228520000006,55.897460999999566,152.43603499999972,107.82031300000017,286.79492200000004,114.48730499999965,143.0771479999994,147.3076170000004,141.53857400000015,141.53857400000015,301.2822270000006,125.64111300000059,138.84619099999964,117.05126999999993
101,128.0771479999994,44.74365200000011,141.9228520000006,98.9741210000002,275.76904300000024,113.9741210000002,138.84619099999964,141.79492200000004,137.17968800000017,131.53857400000015,291.79492200000004,118.46142599999985,131.0258789999998,112.05126999999993
102,113.58984400000008,34.102539000000434,129.3588869999994,83.7177729999994,273.46142599999985,114.87158199999976,132.43603499999972,134.7436520000001,130.89746099999957,121.53857400000015,283.3334960000002,111.6665039999998,122.43603499999972,105.25634799999989
103,103.3334960000002,31.153809000000365,119.74365200000011,71.6665039999998,282.05126999999993,116.2822270000006,127.30761700000039,131.41015599999992,127.17968800000017,117.69238299999961,280.0,108.0771479999994,116.79492200000004,100.38476599999922
104,101.2822270000006,38.46142599999985,117.94873000000007,69.48730499999965,294.87158199999976,116.9228520000006,126.6665039999998,133.9741210000002,128.7177729999994,121.41015599999992,282.82031300000017,108.46142599999985,117.05126999999993,100.89746099999957
105,107.43603499999972,51.410155999999915,123.9741210000002,76.0258789999998,301.53857400000015,116.15380900000036,131.0258789999998,141.0258789999998,134.7436520000001,128.0771479999994,288.3334960000002,110.76904300000024,122.56396500000028,106.79492200000004
106,117.30761700000039,60.64111300000059,133.3334960000002,83.46142599999985,295.6411130000006,114.61523400000078,138.0771479999994,148.7177729999994,141.15380900000036,131.41015599999992,291.79492200000004,112.17968800000017,128.84619099999964,113.84619099999964
107,123.84619099999964,60.25634799999989,139.23095699999976,85.0,280.0,113.84619099999964,144.23095699999976,152.6923829999996,143.46142599999985,128.46142599999985,290.3847659999992,111.53857400000015,131.0258789999998,116.2822270000006
108,122.43603499999972,51.53857400000015,138.0771479999994,80.64111300000059,264.7436520000001,114.23095699999976,147.3076170000004,151.41015599999992,140.51269500000035,121.15380900000036,285.0,109.61523400000078,127.05126999999993,112.05126999999993
109,114.87158199999976,42.69238299999961,131.9228520000006,76.2822270000006,259.3588869999994,114.23095699999976,147.17968800000017,146.53857400000015,134.61523400000078,113.84619099999964,279.3588869999994,108.46142599999985,119.35888699999941,104.61523400000078
110,108.20507799999996,41.025878999999804,126.6665039999998,77.82031300000017,265.89746099999957,112.05126999999993,145.76904300000024,142.05126999999993,130.38476599999922,110.76904300000024,277.05126999999993,108.84619099999964,113.3334960000002,99.87158199999976
111,108.84619099999964,47.30761700000039,127.05126999999993,85.76904300000024,276.2822270000006,108.0771479999994,146.0258789999998,140.51269500000035,131.15380900000036,113.46142599999985,279.48730499999965,110.0,113.3334960000002,100.76904300000024
112,116.2822270000006,54.102539000000434,132.3076170000004,94.61523400000078,277.4360349999997,104.74365200000011,148.20507799999996,140.76904300000024,135.2563479999999,118.58984400000008,283.0771479999994,110.25634799999989,117.30761700000039,105.51269500000035
113,122.69238299999961,52.17968800000017,136.6665039999998,97.56396500000028,260.6411130000006,103.84619099999964,150.6411130000006,139.48730499999965,137.6923829999996,119.87158199999976,281.4101559999999,108.0771479999994,118.46142599999985,108.9741210000002
114,120.12841800000024,39.35888699999941,135.12841800000024,92.43603499999972,230.51269500000035,105.64111300000059,151.0258789999998,135.0,134.10253900000043,112.94873000000007,271.2822270000006,103.7177729999994,112.17968800000017,107.30761700000039
115,107.94873000000007,21.922852000000603,127.05126999999993,83.20507799999996,203.20507799999996,108.3334960000002,148.0771479999994,129.10253900000043,124.74365200000011,99.10253900000043,255.6411130000006,98.84619099999964,100.64111300000059,101.53857400000015
116,92.82031300000017,10.128418000000238,117.17968800000017,76.41015599999992,194.48730499999965,110.64111300000059,142.56396500000028,125.0,114.48730499999965,85.12841800000024,242.3076170000004,95.51269500000035,90.38476599999922,96.15380900000036
117,83.7177729999994,10.384765999999217,111.41015599999992,77.30761700000039,208.0771479999994,111.53857400000015,137.17968800000017,125.0,109.74365200000011,78.46142599999985,239.23095699999976,95.51269500000035,87.43603499999972,95.38476599999922
118,86.0258789999998,22.43603499999972,113.46142599999985,86.2822270000006,234.61523400000078,111.6665039999998,135.12841800000024,129.3588869999994,114.48730499999965,82.56396500000028,248.20507799999996,99.23095699999976,93.58984400000008,100.0
119,97.94873000000007,40.38476599999922,122.56396500000028,98.7177729999994,258.0771479999994,112.05126999999993,138.3334960000002,136.53857400000015,127.82031300000017,95.12841800000024,264.3588869999994,105.51269500000035,106.41015599999992,107.43603499999972
120,111.9228520000006,55.76904300000024,133.3334960000002,108.46142599999985,265.51269500000035,112.94873000000007,145.0,144.7436520000001,143.20507799999996,109.74365200000011,278.3334960000002,111.2822270000006,120.0,112.94873000000007
121,118.9741210000002,61.025878999999804,138.7177729999994,110.64111300000059,253.84619099999964,113.0771479999994,150.2563479999999,150.38476599999922,152.94873000000007,117.43603499999972,281.79492200000004,113.46142599999985,126.9228520000006,113.84619099999964
122,114.61523400000078,53.974121000000196,135.12841800000024,105.0,229.3588869999994,110.89746099999957,149.61523400000078,149.87158199999976,151.79492200000004,112.69238299999961,272.94873000000007,111.0258789999998,122.30761700000039,109.61523400000078
123,101.79492200000004,38.7177729999994,125.51269500000035,96.6665039999998,203.58984400000008,106.0258789999998,142.94873000000007,142.6923829999996,141.0258789999998,97.17968800000017,258.5898440000001,105.38476599999922,108.0771479999994,102.82031300000017
124,89.23095699999976,23.205077999999958,116.2822270000006,93.0771479999994,185.51269500000035,100.76904300000024,134.23095699999976,132.17968800000017,127.43603499999972,79.10253900000043,248.7177729999994,100.51269500000035,91.9228520000006,97.05126999999993
125,84.35888699999941,15.256347999999889,113.46142599999985,97.69238299999961,177.6923829999996,98.58984400000008,129.23095699999976,124.61523400000078,118.7177729999994,67.94873000000007,248.7177729999994,100.51269500000035,82.94873000000007,95.51269500000035
126,88.7177729999994,17.82031300000017,118.0771479999994,107.43603499999972,177.43603499999972,101.79492200000004,131.41015599999992,123.84619099999964,119.23095699999976,67.82031300000017,254.7436520000001,105.51269500000035,84.87158199999976,98.84619099999964
127,98.20507799999996,28.205077999999958,126.53857400000015,115.89746099999957,181.41015599999992,108.46142599999985,139.7436520000001,130.0,127.05126999999993,75.76904300000024,258.5898440000001,112.30761700000039,94.87158199999976,105.0
128,108.0771479999994,40.64111300000059,134.7436520000001,119.10253900000043,187.56396500000028,114.48730499999965,149.48730499999965,139.48730499999965,137.43603499999972,85.12841800000024,256.79492200000004,117.17968800000017,106.79492200000004,111.2822270000006
129,115.38476599999922,49.23095699999976,140.38476599999922,117.94873000000007,193.7177729999994,116.41015599999992,155.38476599999922,147.94873000000007,145.12841800000024,90.64111300000059,253.84619099999964,118.58984400000008,115.89746099999957,115.76904300000024
130,118.20507799999996,51.79492200000004,143.46142599999985,115.64111300000059,197.17968800000017,114.10253900000043,155.0,151.79492200000004,147.56396500000028,90.64111300000059,256.15380900000036,117.82031300000017,120.64111300000059,117.56396500000028
131,116.79492200000004,51.025878999999804,144.61523400000078,115.12841800000024,196.2822270000006,109.61523400000078,149.87158199999976,150.51269500000035,144.87158199999976,86.6665039999998,265.0,116.9228520000006,122.56396500000028,117.17968800000017
132,113.7177729999994,52.30761700000039,144.61523400000078,118.46142599999985,191.15380900000036,105.51269500000035,144.48730499999965,146.9228520000006,140.0,81.6665039999998,274.10253900000043,117.05126999999993,123.9741210000002,116.0258789999998
133,113.3334960000002,59.87158199999976,144.23095699999976,126.2822270000006,183.0771479999994,103.0771479999994,142.6923829999996,145.38476599999922,136.6665039999998,78.46142599999985,275.6411130000006,118.20507799999996,126.79492200000004,116.0258789999998
134,117.82031300000017,71.6665039999998,144.48730499999965,136.41015599999992,172.17968800000017,102.69238299999961,144.7436520000001,146.6665039999998,135.89746099999957,77.17968800000017,266.53857400000015,119.23095699999976,130.2563479999999,117.82031300000017
135,124.87158199999976,80.64111300000059,145.51269500000035,144.7436520000001,157.82031300000017,103.7177729999994,147.94873000000007,147.6923829999996,135.89746099999957,76.53857400000015,250.76904300000024,118.46142599999985,132.05126999999993,119.87158199999976
136,129.61523400000078,81.41015599999992,146.6665039999998,147.3076170000004,142.82031300000017,104.61523400000078,149.3588869999994,145.0,134.48730499999965,74.87158199999976,236.79492200000004,116.15380900000036,130.51269500000035,120.38476599999922
137,129.23095699999976,75.51269500000035,147.94873000000007,144.3588869999994,133.58984400000008,103.7177729999994,148.3334960000002,139.61523400000078,132.05126999999993,73.0771479999994,233.46142599999985,114.35888699999941,128.20507799999996,118.9741210000002
138,125.76904300000024,70.51269500000035,150.0,140.6411130000006,135.12841800000024,101.41015599999992,147.43603499999972,136.15380900000036,131.6665039999998,73.9741210000002,243.46142599999985,115.25634799999989,129.23095699999976,118.3334960000002
139,124.61523400000078,73.20507799999996,153.0771479999994,141.79492200000004,145.76904300000024,100.12841800000024,148.84619099999964,139.23095699999976,135.38476599999922,79.35888699999941,261.9228520000006,119.10253900000043,135.51269500000035,120.76904300000024
140,128.58984400000008,83.58984400000008,156.41015599999992,148.58984400000008,157.05126999999993,101.53857400000015,152.43603499999972,148.0771479999994,142.3076170000004,87.82031300000017,277.94873000000007,123.9741210000002,143.3334960000002,126.2822270000006
141,135.76904300000024,95.51269500000035,158.20507799999996,156.9228520000006,159.87158199999976,105.38476599999922,156.0258789999998,157.6923829999996,149.23095699999976,95.38476599999922,282.5639650000003,126.79492200000004,146.6665039999998,131.9228520000006
142,140.89746099999957,101.9228520000006,157.6923829999996,161.6665039999998,151.53857400000015,109.61523400000078,157.3076170000004,162.3076170000004,152.94873000000007,98.46142599999985,273.0771479999994,125.89746099999957,143.46142599999985,133.46142599999985
143,139.7436520000001,100.25634799999989,154.3588869999994,161.0258789999998,136.6665039999998,112.30761700000039,155.2563479999999,160.0,152.43603499999972,96.9228520000006,254.7436520000001,121.79492200000004,136.41015599999992,129.61523400000078
144,131.79492200000004,92.30761700000039,149.10253900000043,156.53857400000015,123.0771479999994,112.05126999999993,150.38476599999922,152.56396500000028,147.94873000000007,91.6665039999998,235.76904300000024,116.6665039999998,129.87158199999976,122.56396500000028
145,120.0,82.30761700000039,143.7177729999994,151.6665039999998,115.76904300000024,108.84619099999964,144.7436520000001,144.7436520000001,141.41015599999992,83.7177729999994,222.3076170000004,112.82031300000017,125.89746099999957,115.89746099999957
146,110.0,75.12841800000024,140.76904300000024,149.87158199999976,114.35888699999941,103.9741210000002,141.41015599999992,140.51269500000035,135.89746099999957,74.87158199999976,216.6665039999998,111.6665039999998,124.23095699999976,112.43603499999972
147,106.9228520000006,73.58984400000008,142.17968800000017,153.20507799999996,113.9741210000002,100.25634799999989,143.20507799999996,141.79492200000004,134.48730499999965,68.46142599999985,218.84619099999964,113.3334960000002,124.23095699999976,113.20507799999996
148,112.17968800000017,78.0771479999994,147.05126999999993,161.2822270000006,110.51269500000035,100.0,149.48730499999965,147.6923829999996,138.84619099999964,67.94873000000007,226.41015599999992,116.41015599999992,126.53857400000015,117.30761700000039
149,121.9228520000006,85.64111300000059,151.53857400000015,170.2563479999999,103.9741210000002,103.9741210000002,156.41015599999992,154.7436520000001,146.9228520000006,73.84619099999964,234.48730499999965,118.84619099999964,130.51269500000035,122.30761700000039
150,129.7436520000001,91.6665039999998,152.17968800000017,174.7436520000001,97.30761700000039,109.74365200000011,159.61523400000078,159.7436520000001,154.87158199999976,81.9228520000006,238.20507799999996,119.61523400000078,135.0,126.0258789999998
151,131.6665039999998,92.82031300000017,149.10253900000043,172.82031300000017,93.0771479999994,113.7177729999994,157.94873000000007,161.6665039999998,159.23095699999976,87.05126999999993,235.0,118.84619099999964,138.0771479999994,126.9228520000006
152,128.3334960000002,89.48730499999965,145.89746099999957,167.43603499999972,90.64111300000059,114.10253900000043,154.48730499999965,162.17968800000017,159.23095699999976,86.79492200000004,227.17968800000017,118.0771479999994,139.23095699999976,125.76904300000024
153,123.84619099999964,85.51269500000035,145.76904300000024,164.10253900000043,86.9228520000006,111.53857400000015,153.3334960000002,163.0771479999994,156.15380900000036,82.69238299999961,218.3334960000002,118.20507799999996,138.7177729999994,123.7177729999994
154,120.64111300000059,83.7177729999994,148.7177729999994,165.51269500000035,80.76904300000024,107.69238299999961,155.76904300000024,163.9741210000002,152.43603499999972,77.82031300000017,209.7436520000001,118.46142599999985,136.2822270000006,121.41015599999992
155,118.46142599999985,84.74365200000011,150.76904300000024,169.3588869999994,73.9741210000002,104.48730499999965,159.87158199999976,163.0771479999994,149.61523400000078,74.74365200000011,200.0,117.69238299999961,131.6665039999998,118.46142599999985
156,115.76904300000024,86.79492200000004,148.58984400000008,170.76904300000024,69.74365200000011,102.82031300000017,162.3076170000004,159.61523400000078,149.10253900000043,73.84619099999964,189.7436520000001,116.2822270000006,125.76904300000024,115.25634799999989
157,111.2822270000006,87.43603499999972,141.79492200000004,167.6923829999996,68.0771479999994,102.69238299999961,160.51269500000035,154.7436520000001,149.61523400000078,73.84619099999964,182.17968800000017,115.12841800000024,120.25634799999989,112.56396500000028
158,105.51269500000035,85.0,133.46142599999985,161.79492200000004,66.2822270000006,103.84619099999964,154.10253900000043,150.0,148.58984400000008,72.05126999999993,179.23095699999976,114.35888699999941,115.89746099999957,111.53857400000015
159,100.76904300000024,81.15380900000036,128.20507799999996,157.82031300000017,63.0771479999994,105.38476599999922,147.05126999999993,147.05126999999993,144.87158199999976,68.0771479999994,179.7436520000001,113.9741210000002,113.20507799999996,112.69238299999961
160,101.79492200000004,81.9228520000006,130.51269500000035,160.38476599999922,62.17968800000017,107.82031300000017,145.12841800000024,148.9741210000002,142.43603499999972,64.87158199999976,182.05126999999993,114.10253900000043,114.35888699999941,116.0258789999998
161,111.2822270000006,91.6665039999998,140.0,170.2563479999999,67.82031300000017,111.6665039999998,151.41015599999992,157.56396500000028,147.05126999999993,67.17968800000017,184.48730499999965,115.89746099999957,122.05126999999993,121.41015599999992
162,125.25634799999989,107.05126999999993,150.89746099999957,182.17968800000017,76.2822270000006,116.41015599999992,162.56396500000028,169.48730499999965,158.20507799999996,74.87158199999976,185.38476599999922,118.58984400000008,134.61523400000078,126.0258789999998
163,133.9741210000002,116.9228520000006,155.38476599999922,188.58984400000008,77.05126999999993,119.48730499999965,170.2563479999999,176.2822270000006,167.56396500000028,81.41015599999992,182.05126999999993,120.0,143.7177729999994,125.89746099999957
164,130.0,112.43603499999972,150.38476599999922,184.7436520000001,63.589844000000085,117.94873000000007,168.58984400000008,172.3076170000004,166.6665039999998,79.87158199999976,174.61523400000078,118.3334960000002,141.79492200000004,120.25634799999989
165,117.17968800000017,97.69238299999961,141.15380900000036,174.61523400000078,42.56396500000028,112.05126999999993,160.2563479999999,161.41015599999992,156.9228520000006,71.6665039999998,168.3334960000002,115.38476599999922,130.89746099999957,113.3334960000002
166,108.46142599999985,87.69238299999961,137.05126999999993,168.20507799999996,29.230956999999762,105.38476599999922,154.3588869999994,155.2563479999999,149.3588869999994,66.79492200000004,170.2563479999999,115.25634799999989,122.69238299999961,112.05126999999993
167,113.46142599999985,93.58984400000008,142.56396500000028,172.6923829999996,33.46142599999985,101.79492200000004,157.17968800000017,161.79492200000004,153.3334960000002,73.84619099999964,181.9228520000006,120.12841800000024,125.89746099999957,118.9741210000002
168,129.10253900000043,112.05126999999993,153.20507799999996,185.6411130000006,51.025878999999804,102.43603499999972,165.76904300000024,177.17968800000017,167.05126999999993,90.38476599999922,196.53857400000015,127.17968800000017,137.6923829999996,128.7177729999994
169,142.82031300000017,129.48730499999965,159.87158199999976,197.6923829999996,67.56396500000028,105.0,171.9228520000006,189.23095699999976,179.23095699999976,104.35888699999941,202.82031300000017,130.89746099999957,146.53857400000015,133.3334960000002
170,144.61523400000078,134.61523400000078,157.43603499999972,201.9228520000006,71.0258789999998,106.53857400000015,170.6411130000006,188.46142599999985,180.51269500000035,105.12841800000024,194.3588869999994,128.0771479999994,144.48730499999965,129.23095699999976
171,135.76904300000024,127.94873000000007,149.10253900000043,199.3588869999994,60.12841800000024,106.0258789999998,164.23095699999976,177.05126999999993,170.89746099999957,93.58984400000008,175.0,120.76904300000024,134.3588869999994,120.76904300000024
172,126.0258789999998,118.9741210000002,143.20507799999996,196.9228520000006,43.846190999999635,105.0,159.61523400000078,165.38476599999922,158.7177729999994,79.48730499999965,156.53857400000015,114.48730499999965,125.51269500000035,115.38476599999922
173,124.48730499999965,116.79492200000004,145.76904300000024,200.38476599999922,35.38476599999922,105.0,161.15380900000036,162.6923829999996,153.3334960000002,73.20507799999996,150.0,114.35888699999941,124.61523400000078,117.30761700000039
174,132.05126999999993,123.58984400000008,155.2563479999999,209.7436520000001,40.897460999999566,107.17968800000017,167.3076170000004,169.7436520000001,158.0771479999994,77.56396500000028,158.20507799999996,120.51269500000035,130.6411130000006,123.7177729999994
175,141.41015599999992,135.12841800000024,164.7436520000001,219.23095699999976,56.153809000000365,110.51269500000035,172.56396500000028,179.48730499999965,167.82031300000017,87.94873000000007,173.7177729999994,128.84619099999964,136.6665039999998,128.7177729999994
176,144.61523400000078,144.7436520000001,167.43603499999972,222.43603499999972,68.84619099999964,113.7177729999994,172.17968800000017,183.58984400000008,174.3588869999994,96.2822270000006,185.12841800000024,133.84619099999964,137.17968800000017,127.94873000000007
177,139.3588869999994,147.6923829999996,162.56396500000028,217.82031300000017,68.7177729999994,115.38476599999922,166.9228520000006,178.9741210000002,172.82031300000017,97.30761700000039,185.12841800000024,133.20507799999996,131.9228520000006,122.56396500000028
178,130.51269500000035,144.23095699999976,154.7436520000001,208.9741210000002,55.897460999999566,115.12841800000024,161.15380900000036,170.12841800000024,165.6411130000006,92.17968800000017,175.0,128.7177729999994,126.53857400000015,117.56396500000028
179,125.89746099999957,139.48730499999965,150.89746099999957,201.6665039999998,41.666503999999804,113.9741210000002,160.12841800000024,165.12841800000024,160.51269500000035,87.17968800000017,163.20507799999996,125.25634799999989,127.94873000000007,117.30761700000039
180,130.2563479999999,139.61523400000078,154.61523400000078,201.0258789999998,39.23095699999976,113.20507799999996,165.38476599999922,169.61523400000078,164.23095699999976,88.7177729999994,158.9741210000002,125.89746099999957,139.3588869999994,122.69238299999961
181,141.2822270000006,147.56396500000028,164.10253900000043,208.3334960000002,51.410155999999915,113.0771479999994,174.10253900000043,181.2822270000006,176.15380900000036,98.20507799999996,164.48730499999965,130.38476599999922,156.2822270000006,130.12841800000024
182,151.6665039999998,159.7436520000001,174.10253900000043,219.87158199999976,68.3334960000002,112.82031300000017,181.41015599999992,192.17968800000017,188.9741210000002,110.12841800000024,173.58984400000008,134.87158199999976,169.48730499999965,135.0
183,155.6411130000006,169.87158199999976,180.51269500000035,228.84619099999964,76.41015599999992,112.56396500000028,183.84619099999964,195.6411130000006,195.51269500000035,117.43603499999972,178.84619099999964,136.0258789999998,172.56396500000028,135.12841800000024
184,153.9741210000002,174.23095699999976,182.17968800000017,229.61523400000078,71.79492200000004,113.7177729999994,181.79492200000004,192.17968800000017,194.48730499999965,117.56396500000028,177.43603499999972,134.23095699999976,166.6665039999998,132.43603499999972
185,151.2822270000006,172.94873000000007,180.89746099999957,222.3076170000004,60.64111300000059,116.0258789999998,177.94873000000007,186.9228520000006,189.61523400000078,113.0771479999994,172.43603499999972,132.17968800000017,158.84619099999964,130.51269500000035
186,150.12841800000024,168.3334960000002,177.94873000000007,211.53857400000015,51.153809000000365,117.30761700000039,173.84619099999964,183.0771479999994,184.10253900000043,107.56396500000028,167.56396500000028,131.6665039999998,153.46142599999985,130.76904300000024
187,148.20507799999996,161.53857400000015,173.3334960000002,203.3334960000002,46.025878999999804,115.38476599999922,169.23095699999976,179.10253900000043,177.56396500000028,101.6665039999998,163.58984400000008,131.79492200000004,149.7436520000001,131.6665039999998
188,143.58984400000008,154.3588869999994,167.6923829999996,200.76904300000024,43.589844000000085,110.89746099999957,163.84619099999964,173.20507799999996,169.87158199999976,95.38476599999922,159.48730499999965,131.2822270000006,146.0258789999998,131.15380900000036
189,137.94873000000007,149.10253900000043,163.3334960000002,203.3334960000002,42.43603499999972,107.17968800000017,159.87158199999976,167.05126999999993,163.58984400000008,90.64111300000059,154.61523400000078,130.0,143.46142599999985,130.0
190,135.38476599999922,147.56396500000028,162.43603499999972,208.58984400000008,43.20507799999996,107.05126999999993,159.3588869999994,164.48730499999965,162.56396500000028,90.0,150.12841800000024,129.7436520000001,144.3588869999994,130.0
191,136.79492200000004,148.84619099999964,164.7436520000001,213.9741210000002,47.17968800000017,110.0,162.05126999999993,167.05126999999993,167.05126999999993,93.84619099999964,146.41015599999992,131.0258789999998,146.9228520000006,131.2822270000006
192,140.12841800000024,150.2563479999999,167.56396500000028,218.0771479999994,54.61523400000078,112.82031300000017,165.2563479999999,171.9228520000006,173.58984400000008,98.58984400000008,143.46142599999985,133.0771479999994,147.56396500000028,131.79492200000004
193,141.9228520000006,151.2822270000006,168.58984400000008,220.38476599999922,64.10253900000043,112.82031300000017,166.79492200000004,174.7436520000001,177.82031300000017,100.76904300000024,141.0258789999998,134.48730499999965,144.48730499999965,130.89746099999957
194,141.2822270000006,153.58984400000008,167.6923829999996,220.51269500000035,71.2822270000006,109.23095699999976,166.79492200000004,173.84619099999964,177.94873000000007,99.61523400000078,139.3588869999994,134.48730499999965,140.76904300000024,129.61523400000078
195,138.58984400000008,157.6923829999996,166.0258789999998,217.05126999999993,70.38476599999922,104.23095699999976,166.15380900000036,169.87158199999976,174.48730499999965,95.89746099999957,137.56396500000028,133.3334960000002,140.0,129.23095699999976
196,134.61523400000078,161.0258789999998,163.7177729999994,208.9741210000002,59.35888699999941,101.2822270000006,164.7436520000001,164.10253900000043,168.58984400000008,90.64111300000059,134.23095699999976,131.6665039999998,142.05126999999993,129.23095699999976
197,131.15380900000036,161.0258789999998,161.0258789999998,198.84619099999964,44.87158199999976,102.82031300000017,162.43603499999972,159.10253900000043,162.43603499999972,85.12841800000024,129.61523400000078,130.0,144.23095699999976,128.58984400000008
198,130.6411130000006,159.48730499999965,159.23095699999976,192.17968800000017,39.35888699999941,108.46142599999985,159.87158199999976,157.56396500000028,159.10253900000043,82.43603499999972,125.76904300000024,129.61523400000078,144.7436520000001,126.9228520000006
199,134.10253900000043,160.6411130000006,159.87158199999976,193.20507799999996,49.61523400000078,114.23095699999976,158.9741210000002,160.76904300000024,160.12841800000024,84.48730499999965,125.51269500000035,131.2822270000006,144.61523400000078,125.25634799999989
200,139.23095699999976,166.0258789999998,162.05126999999993,199.48730499999965,68.58984400000008,116.2822270000006,160.76904300000024,166.0258789999998,163.84619099999964,89.74365200000011,128.46142599999985,133.9741210000002,144.23095699999976,123.58984400000008
201,140.51269500000035,170.89746099999957,162.43603499999972,203.9741210000002,79.23095699999976,112.94873000000007,163.9741210000002,167.82031300000017,164.87158199999976,91.9228520000006,130.51269500000035,134.61523400000078,142.3076170000004,121.0258789999998
202,134.87158199999976,169.48730499999965,158.9741210000002,200.51269500000035,70.38476599999922,106.53857400000015,165.38476599999922,162.43603499999972,159.48730499999965,86.0258789999998,127.30761700000039,130.89746099999957,136.9228520000006,117.43603499999972
203,125.64111300000059,161.0258789999998,152.94873000000007,190.6411130000006,48.333496000000196,101.53857400000015,163.46142599999985,152.17968800000017,149.23095699999976,74.23095699999976,119.23095699999976,123.84619099999964,129.48730499999965,114.48730499999965
204,119.48730499999965,151.41015599999992,148.46142599999985,182.05126999999993,31.794922000000042,100.25634799999989,160.12841800000024,144.23095699999976,141.0258789999998,64.74365200000011,111.41015599999992,118.20507799999996,124.23095699999976,114.10253900000043
205,120.51269500000035,147.43603499999972,148.7177729999994,181.53857400000015,33.20507799999996,102.05126999999993,158.84619099999964,144.48730499999965,141.0258789999998,64.74365200000011,108.3334960000002,117.82031300000017,124.10253900000043,116.79492200000004
206,126.2822270000006,150.51269500000035,153.58984400000008,188.46142599999985,49.35888699999941,104.61523400000078,161.41015599999992,153.0771479999994,149.7436520000001,73.84619099999964,109.87158199999976,122.56396500000028,127.69238299999961,120.89746099999957
207,131.0258789999998,157.56396500000028,159.23095699999976,195.6411130000006,66.6665039999998,106.41015599999992,166.2822270000006,163.9741210000002,162.05126999999993,85.51269500000035,112.43603499999972,128.20507799999996,131.6665039999998,123.58984400000008
208,130.38476599999922,162.94873000000007,160.51269500000035,196.41015599999992,74.48730499999965,107.05126999999993,168.84619099999964,170.0,170.0,92.05126999999993,112.56396500000028,130.2563479999999,133.0771479999994,123.20507799999996
209,123.58984400000008,162.82031300000017,155.12841800000024,190.2563479999999,69.87158199999976,106.15380900000036,165.38476599999922,166.79492200000004,168.20507799999996,89.48730499999965,110.12841800000024,126.79492200000004,130.51269500000035,119.61523400000078
210,114.10253900000043,156.6665039999998,145.38476599999922,181.79492200000004,56.410155999999915,103.58984400000008,156.79492200000004,155.51269500000035,157.3076170000004,79.74365200000011,107.94873000000007,120.64111300000059,124.61523400000078,114.48730499999965
211,107.05126999999993,147.3076170000004,137.94873000000007,176.9228520000006,40.64111300000059,100.38476599999922,148.9741210000002,143.9741210000002,144.48730499999965,70.38476599999922,108.84619099999964,116.6665039999998,119.10253900000043,110.89746099999957
212,107.17968800000017,140.12841800000024,138.7177729999994,177.82031300000017,30.769043000000238,98.84619099999964,148.58984400000008,140.76904300000024,139.48730499999965,69.10253900000043,113.0771479999994,118.9741210000002,118.9741210000002,111.79492200000004
213,114.61523400000078,140.2563479999999,147.6923829999996,182.94873000000007,32.69238299999961,100.89746099999957,157.56396500000028,149.7436520000001,147.17968800000017,78.46142599999985,118.84619099999964,126.79492200000004,126.9228520000006,117.17968800000017
214,124.74365200000011,148.9741210000002,159.23095699999976,188.7177729999994,46.53857400000015,105.89746099999957,170.76904300000024,166.15380900000036,163.9741210000002,93.20507799999996,122.43603499999972,135.2563479999999,139.87158199999976,124.61523400000078
215,131.79492200000004,162.56396500000028,165.89746099999957,193.20507799999996,66.41015599999992,111.53857400000015,179.3588869999994,180.38476599999922,179.87158199999976,104.87158199999976,121.53857400000015,139.3588869999994,150.89746099999957,130.0
216,133.46142599999985,175.2563479999999,164.7436520000001,197.82031300000017,84.74365200000011,114.87158199999976,177.82031300000017,185.89746099999957,186.53857400000015,108.3334960000002,117.43603499999972,137.05126999999993,155.76904300000024,131.6665039999998
217,132.3076170000004,184.3588869999994,159.10253900000043,204.87158199999976,98.0771479999994,114.10253900000043,168.58984400000008,183.7177729999994,183.9741210000002,105.64111300000059,114.87158199999976,131.53857400000015,155.12841800000024,130.6411130000006
218,132.94873000000007,190.51269500000035,155.51269500000035,214.7436520000001,105.64111300000059,109.87158199999976,160.0,179.61523400000078,178.46142599999985,102.69238299999961,117.05126999999993,127.82031300000017,152.94873000000007,129.23095699999976
219,136.53857400000015,195.0,157.43603499999972,223.84619099999964,105.76904300000024,104.23095699999976,159.23095699999976,178.20507799999996,176.2822270000006,102.69238299999961,123.0771479999994,128.7177729999994,151.53857400000015,129.10253900000043
220,141.15380900000036,196.9228520000006,163.0771479999994,227.43603499999972,96.41015599999992,100.12841800000024,167.05126999999993,179.3588869999994,178.84619099999964,104.74365200000011,128.0771479999994,133.0771479999994,150.76904300000024,130.2563479999999
221,144.10253900000043,195.12841800000024,168.0771479999994,223.7177729999994,78.9741210000002,98.9741210000002,177.82031300000017,180.76904300000024,182.17968800000017,105.89746099999957,128.58984400000008,137.17968800000017,149.61523400000078,131.53857400000015
222,144.61523400000078,190.51269500000035,169.10253900000043,215.51269500000035,62.30761700000039,100.38476599999922,184.10253900000043,180.2563479999999,181.53857400000015,104.35888699999941,125.12841800000024,138.20507799999996,148.3334960000002,131.9228520000006
223,144.23095699999976,186.53857400000015,166.2822270000006,208.3334960000002,56.410155999999915,102.56396500000028,181.53857400000015,177.56396500000028,176.15380900000036,101.41015599999992,120.89746099999957,136.53857400000015,147.94873000000007,131.0258789999998
224,144.48730499999965,185.6411130000006,162.82031300000017,206.53857400000015,64.10253900000043,103.58984400000008,172.43603499999972,174.10253900000043,168.84619099999964,99.48730499999965,118.58984400000008,133.46142599999985,148.84619099999964,129.10253900000043
225,145.12841800000024,187.3076170000004,161.53857400000015,209.61523400000078,77.43603499999972,102.94873000000007,163.20507799999996,171.0258789999998,163.7177729999994,99.74365200000011,117.82031300000017,130.6411130000006,149.10253900000043,126.53857400000015
226,145.12841800000024,189.3588869999994,163.20507799999996,212.94873000000007,85.51269500000035,101.53857400000015,159.3588869999994,169.23095699999976,163.20507799999996,101.2822270000006,116.79492200000004,128.84619099999964,147.05126999999993,123.84619099999964
227,143.7177729999994,189.7436520000001,165.6411130000006,212.43603499999972,84.10253900000043,100.76904300000024,161.41015599999992,168.46142599999985,165.6411130000006,101.9228520000006,114.74365200000011,128.84619099999964,142.6923829999996,121.79492200000004
228,140.12841800000024,187.94873000000007,165.0,207.82031300000017,77.05126999999993,100.51269500000035,165.0,167.82031300000017,167.6923829999996,99.48730499999965,111.9228520000006,131.0258789999998,137.6923829999996,120.64111300000059
229,134.3588869999994,184.48730499999965,159.7436520000001,202.6923829999996,70.64111300000059,100.0,165.38476599999922,166.0258789999998,166.2822270000006,93.3334960000002,107.05126999999993,133.46142599999985,133.20507799999996,120.0
230,127.43603499999972,180.12841800000024,152.17968800000017,201.2822270000006,69.35888699999941,99.10253900000043,161.6665039999998,163.0771479999994,161.9228520000006,86.2822270000006,100.0,133.9741210000002,130.38476599999922,119.61523400000078
231,122.56396500000028,177.17968800000017,147.6923829999996,205.89746099999957,73.46142599999985,98.58984400000008,157.05126999999993,160.51269500000035,158.0771479999994,82.94873000000007,93.7177729999994,131.9228520000006,130.12841800000024,119.48730499999965
232,121.9228520000006,176.79492200000004,149.7436520000001,214.7436520000001,79.61523400000078,98.9741210000002,155.12841800000024,159.61523400000078,157.94873000000007,85.76904300000024,93.46142599999985,129.87158199999976,132.3076170000004,119.61523400000078
233,125.12841800000024,178.58984400000008,156.2822270000006,222.94873000000007,82.17968800000017,99.87158199999976,156.6665039999998,160.38476599999922,161.15380900000036,91.53857400000015,101.9228520000006,130.6411130000006,134.7436520000001,119.74365200000011
234,128.9741210000002,180.76904300000024,162.6923829999996,225.51269500000035,78.0771479999994,100.25634799999989,160.2563479999999,161.79492200000004,164.61523400000078,95.12841800000024,115.89746099999957,134.7436520000001,135.0,120.0
235,131.41015599999992,182.94873000000007,165.76904300000024,222.6923829999996,70.38476599999922,100.12841800000024,163.9741210000002,163.7177729999994,166.41015599999992,94.87158199999976,127.69238299999961,140.38476599999922,133.84619099999964,121.0258789999998
236,132.56396500000028,186.53857400000015,165.89746099999957,220.2563479999999,67.82031300000017,100.12841800000024,167.6923829999996,167.3076170000004,168.0771479999994,94.48730499999965,131.6665039999998,145.12841800000024,134.61523400000078,123.7177729999994
237,134.61523400000078,192.6923829999996,165.89746099999957,224.61523400000078,76.79492200000004,101.15380900000036,171.9228520000006,173.58984400000008,172.56396500000028,99.35888699999941,127.94873000000007,147.05126999999993,139.87158199999976,127.94873000000007
238,137.82031300000017,199.48730499999965,166.2822270000006,236.0258789999998,93.7177729999994,102.30761700000039,176.15380900000036,181.0258789999998,179.7436520000001,109.74365200000011,120.12841800000024,145.0,147.6923829999996,131.53857400000015
239,139.3588869999994,202.56396500000028,164.61523400000078,246.2822270000006,108.46142599999985,102.82031300000017,177.43603499999972,185.12841800000024,185.38476599999922,118.7177729999994,111.6665039999998,139.7436520000001,152.17968800000017,131.0258789999998
240,135.6411130000006,198.7177729999994,157.3076170000004,245.12841800000024,112.30761700000039,102.17968800000017,172.43603499999972,181.15380900000036,183.46142599999985,117.94873000000007,103.3334960000002,132.43603499999972,148.46142599999985,125.25634799999989
241,125.38476599999922,189.23095699999976,144.3588869999994,229.3588869999994,104.61523400000078,101.41015599999992,160.89746099999957,168.46142599999985,171.9228520000006,104.48730499999965,95.0,125.12841800000024,135.89746099999957,116.15380900000036
242,111.53857400000015,177.82031300000017,130.12841800000024,206.41015599999992,89.48730499999965,101.15380900000036,147.43603499999972,151.0258789999998,155.0,84.23095699999976,87.30761700000039,119.10253900000043,119.74365200000011,107.69238299999961
243,100.0,168.3334960000002,121.2822270000006,189.87158199999976,72.05126999999993,101.41015599999992,138.7177729999994,136.2822270000006,140.2563479999999,67.82031300000017,82.30761700000039,115.38476599999922,107.56396500000028,103.58984400000008
244,95.51269500000035,162.94873000000007,122.17968800000017,189.10253900000043,57.82031300000017,101.79492200000004,138.7177729999994,130.38476599999922,134.3588869999994,62.82031300000017,81.6665039999998,114.23095699999976,104.10253900000043,105.38476599999922
245,99.35888699999941,163.3334960000002,131.6665039999998,202.94873000000007,53.20507799999996,102.05126999999993,146.15380900000036,135.51269500000035,139.10253900000043,69.74365200000011,85.12841800000024,115.64111300000059,108.7177729999994,111.2822270000006
246,108.46142599999985,170.51269500000035,143.58984400000008,221.41015599999992,61.9228520000006,102.05126999999993,156.15380900000036,147.94873000000007,150.76904300000024,82.82031300000017,91.0258789999998,119.35888699999941,117.43603499999972,118.3334960000002
247,118.84619099999964,183.3334960000002,152.56396500000028,234.10253900000043,81.41015599999992,102.17968800000017,163.58984400000008,161.15380900000036,163.9741210000002,94.87158199999976,97.56396500000028,124.48730499999965,125.89746099999957,124.10253900000043
248,127.56396500000028,198.46142599999985,157.05126999999993,237.56396500000028,102.05126999999993,102.43603499999972,167.3076170000004,170.0,173.84619099999964,102.43603499999972,102.82031300000017,129.10253900000043,132.3076170000004,127.94873000000007
249,133.46142599999985,210.2563479999999,158.7177729999994,235.6411130000006,113.84619099999964,103.0771479999994,168.84619099999964,173.58984400000008,178.46142599999985,105.64111300000059,105.25634799999989,131.41015599999992,136.9228520000006,130.0
250,135.38476599999922,213.58984400000008,158.58984400000008,233.58984400000008,112.30761700000039,103.46142599999985,168.84619099999964,172.56396500000028,177.3076170000004,106.0258789999998,104.48730499999965,130.2563479999999,139.3588869999994,129.48730499999965
251,132.43603499999972,205.76904300000024,155.76904300000024,233.7177729999994,100.25634799999989,103.20507799999996,165.89746099999957,166.79492200000004,169.87158199999976,102.56396500000028,100.64111300000059,126.41015599999992,137.3076170000004,125.0
252,123.9741210000002,189.3588869999994,148.9741210000002,233.46142599999985,83.84619099999964,101.9228520000006,159.10253900000043,156.2822270000006,157.3076170000004,93.58984400000008,93.58984400000008,121.53857400000015,129.10253900000043,117.05126999999993
253,112.56396500000028,172.17968800000017,139.7436520000001,228.9741210000002,68.84619099999964,100.38476599999922,150.2563479999999,143.0771479999994,143.46142599999985,80.64111300000059,84.35888699999941,117.30761700000039,117.17968800000017,108.20507799999996
254,102.69238299999961,162.3076170000004,132.05126999999993,218.7177729999994,58.46142599999985,99.10253900000043,143.46142599999985,131.2822270000006,133.0771479999994,68.9741210000002,76.0258789999998,115.25634799999989,106.41015599999992,102.43603499999972
255,97.30761700000039,163.0771479999994,128.58984400000008,205.12841800000024,53.20507799999996,98.58984400000008,140.89746099999957,124.61523400000078,128.3334960000002,63.7177729999994,71.41015599999992,115.25634799999989,100.51269500000035,101.41015599999992
256,96.53857400000015,170.2563479999999,128.58984400000008,192.43603499999972,53.589844000000085,98.9741210000002,141.0258789999998,123.20507799999996,127.94873000000007,65.0,70.38476599999922,115.76904300000024,98.7177729999994,103.84619099999964
257,98.20507799999996,177.43603499999972,129.61523400000078,185.0,60.51269500000035,99.87158199999976,140.6411130000006,125.0,129.23095699999976,69.23095699999976,70.76904300000024,115.12841800000024,98.46142599999985,107.30761700000039
258,101.2822270000006,180.89746099999957,131.6665039999998,185.38476599999922,73.7177729999994,101.2822270000006,138.58984400000008,128.3334960000002,131.53857400000015,72.56396500000028,72.17968800000017,113.58984400000008,98.3334960000002,110.64111300000059
259,106.0258789999998,181.6665039999998,135.89746099999957,192.94873000000007,88.0771479999994,102.69238299999961,136.79492200000004,132.3076170000004,135.51269500000035,73.9741210000002,75.64111300000059,113.84619099999964,100.0,113.0771479999994
260,111.15380900000036,182.05126999999993,142.82031300000017,203.46142599999985,94.74365200000011,103.58984400000008,137.3076170000004,136.6665039999998,140.6411130000006,73.20507799999996,80.0,117.05126999999993,103.9741210000002,114.23095699999976
261,114.74365200000011,184.10253900000043,150.38476599999922,211.41015599999992,87.56396500000028,103.46142599999985,140.76904300000024,140.2563479999999,144.7436520000001,70.12841800000024,80.64111300000059,122.17968800000017,109.10253900000043,113.9741210000002
262,115.64111300000059,187.94873000000007,155.12841800000024,213.20507799999996,69.61523400000078,102.17968800000017,144.87158199999976,142.17968800000017,145.0,64.74365200000011,76.6665039999998,126.41015599999992,112.94873000000007,113.0771479999994
263,114.74365200000011,192.3076170000004,155.12841800000024,209.3588869999994,52.17968800000017,100.38476599999922,146.6665039999998,142.05126999999993,140.89746099999957,58.589844000000085,71.41015599999992,127.94873000000007,114.10253900000043,112.94873000000007
264,113.58984400000008,194.87158199999976,150.89746099999957,202.6923829999996,46.666503999999804,99.35888699999941,143.9741210000002,139.61523400000078,134.48730499999965,54.74365200000011,67.56396500000028,126.53857400000015,111.53857400000015,114.10253900000043
265,112.30761700000039,194.10253900000043,144.87158199999976,194.87158199999976,55.38476599999922,99.74365200000011,137.82031300000017,135.12841800000024,129.10253900000043,56.025878999999804,61.2822270000006,122.56396500000028,105.12841800000024,114.74365200000011
266,110.38476599999922,189.7436520000001,140.0,185.6411130000006,70.64111300000059,101.2822270000006,130.89746099999957,129.7436520000001,126.6665039999998,62.69238299999961,48.20507799999996,117.30761700000039,96.2822270000006,113.20507799999996
267,107.30761700000039,184.23095699999976,137.17968800000017,174.10253900000043,82.17968800000017,102.94873000000007,125.89746099999957,125.64111300000059,126.6665039999998,70.0,31.025878999999804,112.05126999999993,89.35888699999941,109.74365200000011
268,103.3334960000002,180.2563479999999,135.89746099999957,162.17968800000017,83.7177729999994,103.7177729999994,122.82031300000017,123.9741210000002,126.79492200000004,71.53857400000015,20.641113000000587,108.9741210000002,88.9741210000002,106.2822270000006
269,99.10253900000043,178.9741210000002,134.10253900000043,153.84619099999964,75.0,103.3334960000002,119.87158199999976,123.46142599999985,124.87158199999976,63.589844000000085,26.922852000000603,108.9741210000002,95.12841800000024,105.38476599999922
270,95.51269500000035,178.84619099999964,131.41015599999992,152.56396500000028,59.102539000000434,102.05126999999993,116.15380900000036,121.15380900000036,119.87158199999976,48.46142599999985,48.333496000000196,111.53857400000015,102.17968800000017,106.53857400000015
271,93.7177729999994,179.48730499999965,128.84619099999964,158.46142599999985,41.9228520000006,100.76904300000024,113.84619099999964,116.6665039999998,113.58984400000008,33.974121000000196,70.51269500000035,114.35888699999941,103.58984400000008,108.0771479999994
272,94.87158199999976,183.0771479999994,129.3588869999994,167.3076170000004,31.282227000000603,100.0,116.79492200000004,113.46142599999985,109.61523400000078,28.589844000000085,74.87158199999976,115.76904300000024,97.17968800000017,107.94873000000007
273,99.23095699999976,192.82031300000017,133.9741210000002,172.82031300000017,33.333496000000196,100.0,126.79492200000004,116.2822270000006,110.76904300000024,35.76904300000024,53.589844000000085,116.15380900000036,86.9228520000006,106.79492200000004
274,104.23095699999976,208.0771479999994,140.0,170.51269500000035,47.56396500000028,100.25634799999989,139.10253900000043,125.0,116.41015599999992,50.25634799999989,16.153809000000365,116.9228520000006,77.30761700000039,105.89746099999957
275,105.25634799999989,223.46142599999985,141.6665039999998,159.48730499999965,65.76904300000024,100.51269500000035,145.38476599999922,133.3334960000002,121.9228520000006,61.9228520000006,-18.461425999999847,118.20507799999996,70.89746099999957,105.64111300000059
276,99.35888699999941,233.84619099999964,135.0,142.94873000000007,78.46142599999985,100.76904300000024,140.12841800000024,134.23095699999976,122.82031300000017,63.333496000000196,-36.28198199999997,117.69238299999961,67.82031300000017,104.74365200000011
277,86.6665039999998,238.46142599999985,120.25634799999989,127.56396500000028,80.51269500000035,101.0258789999998,125.25634799999989,125.12841800000024,117.30761700000039,55.64111300000059,-36.79492200000004,112.69238299999961,66.6665039999998,101.9228520000006
278,71.0258789999998,239.61523400000078,102.43603499999972,119.74365200000011,72.43603499999972,101.0258789999998,107.69238299999961,109.23095699999976,105.76904300000024,44.61523400000078,-28.58984399999963,103.0771479999994,64.61523400000078,96.79492200000004
279,57.56396500000028,239.87158199999976,88.0771479999994,122.30761700000039,56.9228520000006,100.0,95.64111300000059,92.94873000000007,91.41015599999992,35.51269500000035,-22.435790999999426,91.41015599999992,58.20507799999996,90.51269500000035
280,51.025878999999804,240.76904300000024,82.56396500000028,132.56396500000028,37.82031300000017,98.3334960000002,93.84619099999964,83.0771479999994,79.61523400000078,30.128418000000238,-23.076904000000013,83.20507799999996,47.94873000000007,86.15380900000036
281,54.74365200000011,244.87158199999976,88.3334960000002,144.7436520000001,21.922852000000603,98.0771479999994,102.56396500000028,84.23095699999976,77.30761700000039,29.230956999999762,-27.564209000000574,82.94873000000007,40.12841800000024,87.56396500000028
282,68.20507799999996,255.2563479999999,102.69238299999961,153.20507799999996,16.922852000000603,100.64111300000059,116.6665039999998,95.76904300000024,87.69238299999961,33.333496000000196,-28.205077999999958,91.2822270000006,43.333496000000196,95.38476599999922
283,84.87158199999976,272.4360349999997,118.0771479999994,154.3588869999994,25.25634799999989,106.15380900000036,127.56396500000028,111.15380900000036,105.38476599999922,40.38476599999922,-21.923095999999987,103.0771479999994,60.25634799999989,105.64111300000059
284,94.35888699999941,292.94873000000007,125.25634799999989,146.9228520000006,41.666503999999804,112.43603499999972,128.0771479999994,120.51269500000035,118.46142599999985,45.38476599999922,-14.61547900000005,110.76904300000024,82.30761700000039,111.6665039999998
285,90.25634799999989,311.53857400000015,119.35888699999941,132.94873000000007,55.897460999999566,116.2822270000006,117.82031300000017,118.46142599999985,118.20507799999996,44.87158199999976,-16.153809000000365,109.35888699999941,96.0258789999998,109.48730499999965
286,75.76904300000024,325.2563479999999,104.35888699999941,119.35888699999941,60.51269500000035,116.2822270000006,103.7177729999994,108.0771479999994,105.76904300000024,40.12841800000024,-28.461425999999847,101.15380900000036,93.3334960000002,101.79492200000004
287,62.43603499999972,334.7436520000001,91.2822270000006,115.76904300000024,54.74365200000011,114.23095699999976,95.64111300000059,98.0771479999994,91.41015599999992,35.897460999999566,-43.46142599999985,93.7177729999994,78.46142599999985,95.0
288,59.87158199999976,343.20507799999996,89.87158199999976,126.9228520000006,43.974121000000196,113.20507799999996,98.46142599999985,95.38476599999922,85.76904300000024,36.410155999999915,-51.92309599999999,93.46142599999985,64.10253900000043,93.7177729999994
289,68.9741210000002,354.7436520000001,101.2822270000006,146.2822270000006,36.410155999999915,115.0,109.61523400000078,100.51269500000035,92.05126999999993,42.82031300000017,-53.07690400000001,99.74365200000011,61.79492200000004,97.94873000000007
290,81.15380900000036,372.4360349999997,116.0258789999998,159.10253900000043,37.82031300000017,118.20507799999996,120.12841800000024,108.3334960000002,104.48730499999965,52.43603499999972,-53.20507799999996,106.53857400000015,74.74365200000011,103.46142599999985
291,86.6665039999998,393.7177729999994,122.17968800000017,155.38476599999922,47.56396500000028,119.74365200000011,122.30761700000039,111.9228520000006,112.56396500000028,58.974121000000196,-57.051270000000386,107.69238299999961,95.64111300000059,105.76904300000024
292,81.53857400000015,410.3847659999992,114.61523400000078,139.3588869999994,56.666503999999804,117.56396500000028,114.23095699999976,108.20507799999996,109.23095699999976,57.17968800000017,-64.23071300000038,102.30761700000039,110.38476599999922,103.46142599999985
293,68.84619099999964,414.6152340000008,99.10253900000043,125.12841800000024,55.0,111.9228520000006,101.53857400000015,98.84619099999964,95.12841800000024,46.153809000000365,-70.89746100000002,95.51269500000035,106.53857400000015,98.9741210000002
294,56.53857400000015,407.17968800000017,87.30761700000039,123.20507799999996,39.48730499999965,105.76904300000024,93.46142599999985,89.74365200000011,78.46142599999985,31.538574000000153,-76.66674799999964,92.94873000000007,81.53857400000015,95.0
295,51.025878999999804,398.84619099999964,87.30761700000039,132.43603499999972,18.589844000000085,102.82031300000017,95.38476599999922,86.6665039999998,69.23095699999976,22.82031300000017,-85.64111300000013,95.76904300000024,46.666503999999804,93.20507799999996
296,55.0,402.6923829999996,98.3334960000002,143.9741210000002,7.179688000000169,105.12841800000024,105.51269500000035,91.6665039999998,72.43603499999972,26.794922000000042,-100.38452099999995,100.38476599999922,21.153809000000365,93.84619099999964
297,66.15380900000036,423.46142599999985,112.94873000000007,150.89746099999957,15.897460999999566,111.41015599999992,116.9228520000006,101.9228520000006,86.15380900000036,42.43603499999972,-113.97436500000003,102.69238299999961,21.538574000000153,97.56396500000028
298,79.35888699999941,454.23095699999976,122.94873000000007,151.9228520000006,42.17968800000017,117.56396500000028,122.43603499999972,112.56396500000028,102.56396500000028,60.51269500000035,-112.69238299999961,102.30761700000039,49.102539000000434,103.9741210000002
299,89.23095699999976,480.89746099999957,125.0,150.12841800000024,69.48730499999965,119.23095699999976,119.87158199999976,118.0771479999994,112.30761700000039,69.23095699999976,-89.61547900000005,101.6665039999998,88.0771479999994,110.64111300000059
300,91.53857400000015,490.76904300000024,121.0258789999998,148.84619099999964,77.43603499999972,114.61523400000078,111.9228520000006,115.25634799999989,108.9741210000002,61.153809000000365,-57.435790999999426,102.94873000000007,114.48730499999965,113.58984400000008
301,84.61523400000078,482.3076170000004,114.23095699999976,148.20507799999996,57.17968800000017,106.41015599999992,103.0771479999994,103.58984400000008,92.82031300000017,39.23095699999976,-41.28198199999997,105.12841800000024,112.82031300000017,109.74365200000011
302,71.53857400000015,467.6923829999996,107.05126999999993,145.0,20.0,99.48730499999965,96.9228520000006,87.05126999999993,71.9228520000006,16.282227000000603,-60.51293900000019,104.87158199999976,86.15380900000036,100.51269500000035
303,58.974121000000196,464.10253900000043,100.51269500000035,137.05126999999993,-9.8718259999996,98.58984400000008,94.74365200000011,72.69238299999961,58.333496000000196,7.179688000000169,-112.56420900000057,99.74365200000011,53.333496000000196,90.64111300000059
304,54.102539000000434,480.12841800000024,95.89746099999957,127.43603499999972,-13.58984399999963,104.35888699999941,96.41015599999992,66.79492200000004,59.35888699999941,17.82031300000017,-172.0512700000004,90.76904300000024,35.0,85.89746099999957
305,59.48730499999965,509.6152340000008,95.25634799999989,124.74365200000011,9.230956999999762,113.20507799999996,100.89746099999957,72.05126999999993,73.0771479999994,41.025878999999804,-204.7436520000001,83.20507799999996,39.48730499999965,89.23095699999976
306,72.94873000000007,539.7436520000001,100.12841800000024,135.76904300000024,42.82031300000017,119.48730499999965,107.69238299999961,85.89746099999957,90.51269500000035,62.30761700000039,-188.58984399999963,82.69238299999961,59.61523400000078,98.7177729999994
307,87.17968800000017,561.2822270000006,109.35888699999941,158.20507799999996,66.0258789999998,120.0,115.12841800000024,101.41015599999992,102.17968800000017,70.76904300000024,-133.33325200000036,91.15380900000036,78.58984400000008,108.0771479999994
308,93.58984400000008,573.9741210000002,117.43603499999972,178.46142599999985,66.41015599999992,115.0,120.64111300000059,110.51269500000035,102.94873000000007,65.25634799999989,-76.66674799999964,103.3334960000002,83.58984400000008,111.0258789999998
309,88.3334960000002,584.6152340000008,118.46142599999985,182.43603499999972,48.589844000000085,108.3334960000002,121.6665039999998,108.84619099999964,95.0,52.69238299999961,-55.76928699999962,110.38476599999922,75.12841800000024,105.64111300000059
310,76.53857400000015,601.1538090000004,111.53857400000015,169.3588869999994,29.615234000000783,104.48730499999965,117.94873000000007,99.48730499999965,85.64111300000059,42.56396500000028,-75.89746100000002,107.69238299999961,66.6665039999998,97.56396500000028
311,69.87158199999976,626.6665039999998,103.20507799999996,156.0258789999998,24.230956999999762,106.0258789999998,112.43603499999972,91.2822270000006,82.05126999999993,39.87158199999976,-108.33325200000036,99.48730499999965,71.79492200000004,95.25634799999989
312,75.76904300000024,656.6665039999998,101.6665039999998,162.05126999999993,34.102539000000434,111.53857400000015,109.61523400000078,91.0258789999998,86.15380900000036,42.56396500000028,-120.1281740000004,95.12841800000024,90.51269500000035,101.9228520000006
313,91.15380900000036,683.205078,109.23095699999976,188.46142599999985,48.974121000000196,116.41015599999992,112.05126999999993,99.23095699999976,93.9741210000002,46.79492200000004,-104.61547900000005,98.9741210000002,110.0,112.69238299999961
314,105.12841800000024,702.0512699999999,120.51269500000035,216.2822270000006,57.17968800000017,116.9228520000006,117.94873000000007,109.87158199999976,100.12841800000024,51.2822270000006,-81.79492200000004,107.30761700000039,116.0258789999998,118.84619099999964
315,109.23095699999976,716.5385740000002,126.9228520000006,225.51269500000035,55.64111300000059,113.7177729999994,122.30761700000039,115.76904300000024,102.30761700000039,58.20507799999996,-71.15380900000036,111.53857400000015,105.38476599999922,115.89746099999957
316,101.9228520000006,733.205078,123.9741210000002,213.58984400000008,48.846190999999635,109.23095699999976,120.89746099999957,113.58984400000008,101.41015599999992,67.17968800000017,-72.69238299999961,106.9228520000006,84.48730499999965,106.79492200000004
317,87.30761700000039,754.8715819999998,112.05126999999993,192.43603499999972,41.9228520000006,105.0,111.79492200000004,103.9741210000002,97.56396500000028,71.9228520000006,-72.17944299999999,95.64111300000059,62.56396500000028,97.56396500000028
318,70.76904300000024,777.1796880000002,95.25634799999989,176.53857400000015,36.025878999999804,100.64111300000059,96.53857400000015,90.0,89.23095699999976,63.974121000000196,-61.66674799999964,83.9741210000002,45.897460999999566,92.05126999999993
319,58.0771479999994,794.1025390000004,81.0258789999998,174.61523400000078,29.74365200000011,96.79492200000004,81.15380900000036,76.6665039999998,76.53857400000015,41.9228520000006,-47.17944299999999,78.46142599999985,39.48730499999965,91.0258789999998
320,55.12841800000024,804.2309569999998,77.82031300000017,189.3588869999994,22.82031300000017,95.64111300000059,73.84619099999964,70.25634799999989,64.10253900000043,16.153809000000365,-40.25634799999989,82.05126999999993,47.82031300000017,93.84619099999964
321,64.35888699999941,815.0,89.48730499999965,216.15380900000036,18.205077999999958,99.35888699999941,80.76904300000024,75.12841800000024,60.0,2.8203130000001693,-43.846190999999635,92.69238299999961,71.2822270000006,99.61523400000078
322,81.15380900000036,836.2822270000006,110.25634799999989,243.58984400000008,20.897460999999566,106.6665039999998,99.74365200000011,89.74365200000011,68.84619099999964,10.641113000000587,-49.35888699999987,104.87158199999976,100.76904300000024,106.53857400000015
323,96.53857400000015,872.1796880000002,127.94873000000007,260.12841800000024,33.7177729999994,113.7177729999994,121.41015599999992,106.6665039999998,87.82031300000017,36.025878999999804,-46.41015600000037,111.6665039999998,118.84619099999964,111.79492200000004
324,102.43603499999972,916.2822270000006,132.6923829999996,262.05126999999993,53.333496000000196,116.41015599999992,135.2563479999999,117.82031300000017,108.46142599999985,66.6665039999998,-32.564209000000574,109.61523400000078,112.69238299999961,113.3334960000002
325,96.9228520000006,954.4873049999997,123.0771479999994,254.61523400000078,70.38476599999922,113.7177729999994,136.2822270000006,119.35888699999941,121.53857400000015,89.35888699999941,-14.102538999999979,100.89746099999957,85.0,110.76904300000024
326,82.82031300000017,972.3076170000004,105.51269500000035,247.82031300000017,73.84619099999964,107.56396500000028,125.89746099999957,111.15380900000036,120.25634799999989,93.3334960000002,0.512695000000349,90.89746099999957,52.94873000000007,104.23095699999976
327,64.35888699999941,962.5639650000003,88.46142599999985,249.7436520000001,57.43603499999972,100.76904300000024,108.7177729999994,95.12841800000024,102.30761700000039,73.3334960000002,5.3847659999992175,84.35888699999941,35.64111300000059,94.48730499999965
328,46.9228520000006,933.4614259999998,78.58984400000008,262.4360349999997,27.17968800000017,96.0258789999998,90.89746099999957,76.0258789999998,73.0771479999994,34.23095699999976,-1.2822270000006029,83.58984400000008,40.76904300000024,84.87158199999976
329,36.53857400000015,908.0771479999994,78.58984400000008,281.4101559999999,0.512695000000349,95.38476599999922,80.25634799999989,62.30761700000039,47.43603499999972,-5.641113000000132,-16.794922000000042,88.0771479999994,61.79492200000004,80.38476599999922
330,38.846190999999635,911.6665039999998,87.30761700000039,300.12841800000024,-4.487060999999812,99.48730499999965,82.30761700000039,62.56396500000028,41.79492200000004,-21.923095999999987,-33.974365000000034,96.15380900000036,85.0,84.48730499999965
331,53.589844000000085,952.1796880000002,100.0,315.51269500000035,16.666503999999804,106.15380900000036,95.89746099999957,77.69238299999961,61.025878999999804,-2.4360349999997197,-43.974365000000034,103.7177729999994,98.58984400000008,95.0
332,73.20507799999996,1011.0258789999998,110.64111300000059,328.20507799999996,49.61523400000078,111.41015599999992,111.9228520000006,97.69238299999961,91.79492200000004,40.12841800000024,-38.46142599999985,106.6665039999998,98.0771479999994,105.89746099999957
333,87.30761700000039,1058.8461909999996,116.0258789999998,338.9741210000002,73.3334960000002,113.20507799999996,119.61523400000078,109.61523400000078,112.82031300000017,76.53857400000015,-13.461425999999847,104.23095699999976,88.3334960000002,111.41015599999992
334,90.0,1079.2309569999998,115.76904300000024,346.6665039999998,77.05126999999993,112.69238299999961,114.48730499999965,107.82031300000017,111.53857400000015,84.23095699999976,26.538574000000153,99.35888699999941,76.53857400000015,110.0
335,82.82031300000017,1077.6923829999996,110.76904300000024,351.6665039999998,66.15380900000036,112.30761700000039,101.15380900000036,96.15380900000036,92.56396500000028,63.46142599999985,66.9228520000006,95.38476599999922,66.53857400000015,103.58984400000008
336,70.51269500000035,1071.2822270000006,101.79492200000004,356.53857400000015,52.94873000000007,112.17968800000017,87.82031300000017,82.30761700000039,69.74365200000011,32.69238299999961,87.69238299999961,92.30761700000039,56.9228520000006,94.74365200000011
337,57.69238299999961,1070.3847659999992,90.0,364.10253900000043,44.23095699999976,111.0258789999998,79.87158199999976,70.51269500000035,54.48730499999965,11.666503999999804,79.10253900000043,87.82031300000017,48.20507799999996,86.2822270000006
338,47.82031300000017,1073.7177729999994,78.84619099999964,374.87158199999976,38.589844000000085,108.58984400000008,77.56396500000028,61.53857400000015,49.87158199999976,7.820313000000169,54.61523400000078,81.0258789999998,44.87158199999976,80.76904300000024
339,43.7177729999994,1075.7690430000002,73.3334960000002,388.9741210000002,33.0771479999994,106.9228520000006,78.58984400000008,56.2822270000006,52.43603499999972,15.0,45.64111300000059,75.38476599999922,51.2822270000006,80.64111300000059
340,47.43603499999972,1074.2309569999998,77.56396500000028,406.6665039999998,28.333496000000196,107.43603499999972,81.79492200000004,56.9228520000006,57.43603499999972,22.17968800000017,74.35888699999941,76.15380900000036,65.0,86.41015599999992
341,57.43603499999972,1072.8203130000002,91.2822270000006,425.89746099999957,26.922852000000603,108.84619099999964,87.56396500000028,64.35888699999941,62.69238299999961,23.717772999999397,131.2822270000006,85.12841800000024,78.9741210000002,95.64111300000059
342,68.84619099999964,1078.205078,108.7177729999994,443.46142599999985,30.51269500000035,109.10253900000043,95.89746099999957,76.2822270000006,68.3334960000002,23.333496000000196,181.41015599999992,98.0771479999994,88.7177729999994,103.9741210000002
343,75.0,1095.3847659999992,120.38476599999922,459.23095699999976,37.05126999999993,107.56396500000028,104.23095699999976,87.05126999999993,74.35888699999941,27.30761700000039,194.7436520000001,106.41015599999992,94.48730499999965,107.05126999999993
344,70.25634799999989,1120.8974609999996,118.3334960000002,476.79492200000004,40.38476599999922,105.38476599999922,107.43603499999972,89.48730499999965,76.9228520000006,34.61523400000078,171.41015599999992,102.56396500000028,95.51269500000035,102.69238299999961
345,52.94873000000007,1141.410156,100.76904300000024,499.7436520000001,33.846190999999635,103.9741210000002,100.76904300000024,78.9741210000002,70.0,34.74365200000011,140.2563479999999,86.6665039999998,87.43603499999972,92.05126999999993
346,29.615234000000783,1143.9741210000002,76.15380900000036,527.4360349999997,19.358886999999413,104.61523400000078,85.12841800000024,58.333496000000196,52.69238299999961,19.871581999999762,132.56396500000028,67.56396500000028,68.46142599999985,80.51269500000035
347,13.974121000000196,1129.1025390000004,60.0,556.794922,9.230956999999762,107.30761700000039,69.23095699999976,39.87158199999976,35.12841800000024,-1.7949220000000423,157.3076170000004,57.69238299999961,45.38476599999922,75.64111300000059
348,17.17968800000017,1114.1025390000004,62.43603499999972,585.7690430000002,16.282227000000603,111.53857400000015,63.589844000000085,37.17968800000017,31.410155999999915,-10.38452099999995,196.0258789999998,63.46142599999985,32.94873000000007,81.53857400000015
349,38.46142599999985,1117.5639650000003,79.48730499999965,613.5898440000001,40.897460999999566,115.51269500000035,71.2822270000006,53.20507799999996,46.9228520000006,6.025878999999804,221.53857400000015,79.87158199999976,42.56396500000028,94.10253900000043
350,63.589844000000085,1143.0771479999994,95.89746099999957,639.4873049999997,69.35888699999941,117.30761700000039,84.23095699999976,76.41015599999992,70.76904300000024,37.56396500000028,221.15380900000036,94.35888699999941,73.9741210000002,104.87158199999976
351,77.43603499999972,1177.8203130000002,99.48730499999965,663.3334960000002,87.05126999999993,116.41015599999992,92.05126999999993,91.0258789999998,86.79492200000004,61.410155999999915,207.3076170000004,98.20507799999996,113.58984400000008,107.94873000000007
352,77.30761700000039,1205.0,92.82031300000017,687.1796880000002,89.61523400000078,115.38476599999922,92.17968800000017,91.53857400000015,88.0771479999994,63.7177729999994,206.53857400000015,92.94873000000007,144.3588869999994,105.12841800000024
353,72.94873000000007,1216.2822270000006,88.58984400000008,713.7177729999994,83.0771479999994,117.17968800000017,90.64111300000059,85.51269500000035,81.79492200000004,50.51269500000035,236.15380900000036,87.82031300000017,155.0,102.94873000000007
354,74.48730499999965,1212.05127,95.51269500000035,743.0771479999994,73.3334960000002,122.05126999999993,93.7177729999994,82.69238299999961,78.3334960000002,38.974121000000196,286.79492200000004,89.35888699999941,144.7436520000001,104.74365200000011
355,81.53857400000015,1196.9228520000006,108.7177729999994,772.3076170000004,60.51269500000035,125.89746099999957,99.35888699999941,83.84619099999964,78.9741210000002,37.82031300000017,328.46142599999985,95.64111300000059,121.41015599999992,107.82031300000017
356,85.38476599999922,1177.05127,115.0,797.8203130000002,42.82031300000017,124.35888699999941,99.10253900000043,81.41015599999992,75.64111300000059,40.25634799999989,335.51269500000035,98.84619099999964,96.6665039999998,107.17968800000017
357,79.10253900000043,1161.410156,107.05126999999993,816.4101559999999,24.871581999999762,117.82031300000017,88.20507799999996,69.87158199999976,62.30761700000039,34.23095699999976,308.46142599999985,94.61523400000078,81.41015599999992,101.2822270000006
358,66.79492200000004,1159.1025390000004,91.2822270000006,828.4614259999998,18.333496000000196,112.30761700000039,72.43603499999972,54.23095699999976,44.48730499999965,18.589844000000085,273.46142599999985,85.89746099999957,81.0258789999998,94.48730499999965
359,59.61523400000078,1172.3076170000004,81.53857400000015,837.9487300000001,32.30761700000039,113.7177729999994,63.333496000000196,45.12841800000024,35.12841800000024,5.128418000000238,257.82031300000017,79.87158199999976,94.23095699999976,92.82031300000017
360,64.35888699999941,1193.3334960000002,86.53857400000015,848.9741210000002,61.79492200000004,121.9228520000006,67.56396500000028,48.7177729999994,42.05126999999993,7.43603499999972,267.4360349999997,80.76904300000024,113.20507799999996,97.82031300000017
361,77.05126999999993,1208.4614259999998,101.15380900000036,862.9487300000001,88.9741210000002,131.15380900000036,79.61523400000078,60.0,58.974121000000196,25.897460999999566,286.4101559999999,86.0258789999998,128.46142599999985,104.61523400000078
362,86.15380900000036,1208.205078,112.17968800000017,879.3588869999994,95.76904300000024,134.7436520000001,87.82031300000017,68.7177729999994,71.6665039999998,46.79492200000004,296.53857400000015,89.61523400000078,133.46142599999985,106.79492200000004
363,84.74365200000011,1193.9741210000002,111.2822270000006,899.7436520000001,78.20507799999996,130.76904300000024,86.79492200000004,68.9741210000002,70.76904300000024,53.974121000000196,297.05126999999993,88.3334960000002,129.7436520000001,102.69238299999961
364,77.30761700000039,1176.2822270000006,103.46142599999985,927.5639650000003,49.74365200000011,123.3334960000002,82.17968800000017,65.25634799999989,59.74365200000011,43.333496000000196,302.17968800000017,85.12841800000024,126.0258789999998,97.69238299999961
365,75.38476599999922,1166.2822270000006,101.6665039999998,960.6411130000006,31.025878999999804,119.10253900000043,84.10253900000043,66.6665039999998,51.79492200000004,25.897460999999566,323.3334960000002,86.2822270000006,131.2822270000006,98.58984400000008
366,85.51269500000035,1168.8461909999996,112.69238299999961,986.2822270000006,35.38476599999922,121.9228520000006,96.2822270000006,78.84619099999964,58.333496000000196,18.717772999999397,353.7177729999994,94.48730499999965,146.6665039999998,107.30761700000039
367,101.9228520000006,1180.7690430000002,130.12841800000024,988.5898440000001,60.0,129.23095699999976,111.2822270000006,96.79492200000004,78.20507799999996,30.128418000000238,374.3588869999994,105.64111300000059,163.20507799999996,117.56396500000028
368,111.0258789999998,1191.5385740000002,139.61523400000078,965.6411130000006,87.56396500000028,134.7436520000001,117.17968800000017,108.7177729999994,97.17968800000017,51.410155999999915,372.5639650000003,111.9228520000006,168.9741210000002,121.41015599999992
369,104.74365200000011,1190.6411130000006,133.9741210000002,935.7690430000002,98.46142599999985,133.46142599999985,108.58984400000008,105.38476599999922,99.74365200000011,64.35888699999941,353.84619099999964,108.9741210000002,159.87158199999976,115.25634799999989
370,88.58984400000008,1174.2309569999998,120.0,925.1284180000002,85.64111300000059,126.2822270000006,92.17968800000017,88.58984400000008,83.3334960000002,57.69238299999961,335.76904300000024,100.64111300000059,142.94873000000007,104.10253900000043
371,77.05126999999993,1151.410156,112.82031300000017,946.2822270000006,61.025878999999804,119.10253900000043,81.9228520000006,71.6665039999998,61.53857400000015,37.30761700000039,331.15380900000036,95.12841800000024,131.41015599999992,97.43603499999972
372,81.53857400000015,1138.0771479999994,121.15380900000036,986.2822270000006,45.51269500000035,118.20507799999996,86.2822270000006,68.46142599999985,52.30761700000039,21.666503999999804,338.3334960000002,96.79492200000004,135.0,100.76904300000024
373,99.87158199999976,1144.8715819999998,139.10253900000043,1017.6923829999996,51.79492200000004,124.48730499999965,100.38476599999922,81.0258789999998,63.846190999999635,26.282227000000603,345.89746099999957,103.46142599999985,152.82031300000017,111.6665039999998
374,119.10253900000043,1167.05127,152.17968800000017,1019.2309569999998,74.74365200000011,132.43603499999972,110.64111300000059,98.0771479999994,86.79492200000004,49.35888699999941,345.6411130000006,108.84619099999964,174.48730499999965,121.9228520000006
375,125.76904300000024,1188.7177729999994,150.0,992.5639650000003,96.41015599999992,134.87158199999976,107.30761700000039,105.89746099999957,103.84619099999964,74.23095699999976,341.4101559999999,108.9741210000002,187.17968800000017,124.74365200000011
376,116.6665039999998,1194.6152340000008,134.3588869999994,958.7177729999994,101.2822270000006,129.23095699999976,93.0771479999994,100.25634799999989,103.7177729999994,83.0771479999994,342.94873000000007,105.0,183.9741210000002,118.9741210000002
377,99.74365200000011,1180.256348,117.05126999999993,940.8974609999996,86.0258789999998,119.74365200000011,80.25634799999989,88.0771479999994,89.10253900000043,72.05126999999993,352.82031300000017,100.76904300000024,168.7177729999994,109.23095699999976
378,87.56396500000028,1152.4360349999997,110.51269500000035,947.6923829999996,60.51269500000035,112.94873000000007,80.64111300000059,80.89746099999957,73.7177729999994,53.0771479999994,362.3076170000004,99.61523400000078,152.05126999999993,101.9228520000006
379,88.20507799999996,1126.1538090000004,118.9741210000002,970.1284180000002,40.76904300000024,112.82031300000017,95.38476599999922,85.25634799999989,70.25634799999989,44.23095699999976,362.4360349999997,101.79492200000004,144.61523400000078,101.2822270000006
380,101.15380900000036,1115.1284180000002,137.43603499999972,991.5385740000002,40.12841800000024,118.58984400000008,115.38476599999922,99.23095699999976,82.56396500000028,54.61523400000078,355.0,105.89746099999957,150.51269500000035,107.43603499999972
381,117.82031300000017,1124.1025390000004,155.0,1000.2563479999999,61.153809000000365,125.64111300000059,128.3334960000002,114.61523400000078,102.94873000000007,77.82031300000017,351.15380900000036,109.61523400000078,165.0,116.79492200000004
382,127.56396500000028,1143.8461909999996,161.15380900000036,995.1284180000002,92.69238299999961,130.51269500000035,127.94873000000007,121.9228520000006,117.56396500000028,97.56396500000028,358.9741210000002,111.2822270000006,177.82031300000017,123.3334960000002
383,123.84619099999964,1158.4614259999998,152.43603499999972,982.9487300000001,117.82031300000017,131.9228520000006,115.89746099999957,116.6665039999998,116.2822270000006,100.0,375.0,109.48730499999965,180.51269500000035,122.30761700000039
